# n + 232Th   : (n,g)             Total
# Q-value    = 4.78639E+00
# E-threshold= 0.00000E+00
# # energies =    57
#     E          xs       gamma xs  xs/res.prod.xs
 1.00000E-11 3.69698E+05 1.50866E+06 1.00000E+00
 2.53000E-08 7.35000E+03 2.99939E+04 1.00000E+00
 2.00000E-07 2.61416E+03 1.06679E+04 1.00000E+00
 1.00000E-06 1.83248E+05 7.47798E+05 1.00000E+00
 1.00000E-05 4.92240E+04 2.00877E+05 1.00000E+00
 1.00000E-04 1.11774E+04 4.56258E+04 1.00000E+00
 1.00000E-03 2.65245E+03 1.08805E+04 1.00000E+00
 2.00000E-03 1.68174E+03 6.93916E+03 1.00000E+00
 5.00000E-03 1.05286E+03 4.40015E+03 1.00000E+00
 1.00000E-02 8.04472E+02 3.39761E+03 1.00000E+00
 2.00000E-02 6.14265E+02 2.61760E+03 1.00000E+00
 5.00000E-02 4.10756E+02 1.77229E+03 1.00000E+00
 1.00000E-01 2.20485E+02 9.59744E+02 1.00000E+00
 2.00000E-01 1.55137E+02 6.91747E+02 1.00000E+00
 4.00000E-01 1.36903E+02 6.32998E+02 1.00000E+00
 6.00000E-01 1.49906E+02 7.14985E+02 1.00000E+00
 8.00000E-01 1.53759E+02 7.57097E+02 1.00000E+00
 1.00000E+00 1.28269E+02 6.46633E+02 1.00000E+00
 1.20000E+00 1.12444E+02 5.80470E+02 1.00000E+00
 1.40000E+00 9.99063E+01 5.26962E+02 1.00000E+00
 1.60000E+00 9.27551E+01 4.98968E+02 1.00000E+00
 1.80000E+00 8.75007E+01 4.78723E+02 1.00000E+00
 2.00000E+00 8.35574E+01 4.63789E+02 1.00000E+00
 2.20000E+00 7.84463E+01 4.40892E+02 1.00000E+00
 2.40000E+00 7.19153E+01 4.08649E+02 1.00000E+00
 2.60000E+00 6.58958E+01 3.78350E+02 1.00000E+00
 2.80000E+00 5.99472E+01 3.47786E+02 1.00000E+00
 3.00000E+00 5.32718E+01 3.12685E+02 1.00000E+00
 3.50000E+00 3.97645E+01 2.38768E+02 1.00000E+00
 4.00000E+00 2.79756E+01 1.72565E+02 1.00000E+00
 4.50000E+00 1.93942E+01 1.22369E+02 1.00000E+00
 5.00000E+00 1.30578E+01 8.41084E+01 1.00000E+00
 5.50000E+00 8.73794E+00 5.73540E+01 1.00000E+00
 6.00000E+00 9.98761E-01 5.94775E+00 1.00000E+00
 6.50000E+00 6.60064E-01 3.50238E+00 1.00000E+00
 7.00000E+00 6.98653E-01 3.61986E+00 1.00000E+00
 7.50000E+00 7.92248E-01 4.12413E+00 1.00000E+00
 8.00000E+00 9.01182E-01 4.68139E+00 1.00000E+00
 8.50000E+00 1.02706E+00 5.40805E+00 1.00000E+00
 9.00000E+00 1.15453E+00 6.17603E+00 1.00000E+00
 9.50000E+00 1.27613E+00 6.94341E+00 1.00000E+00
 1.00000E+01 1.36333E+00 7.46819E+00 1.00000E+00
 1.05000E+01 1.43956E+00 8.03163E+00 1.00000E+00
 1.10000E+01 1.49392E+00 8.50579E+00 1.00000E+00
 1.15000E+01 1.50022E+00 8.57434E+00 1.00000E+00
 1.20000E+01 1.50204E+00 8.75348E+00 1.00000E+00
 1.25000E+01 1.48035E+00 8.80942E+00 1.00000E+00
 1.30000E+01 1.43110E+00 8.67126E+00 1.00000E+00
 1.35000E+01 1.35392E+00 8.22644E+00 1.00000E+00
 1.40000E+01 1.28228E+00 7.91643E+00 1.00000E+00
 1.45000E+01 1.19623E+00 7.44001E+00 1.00000E+00
 1.50000E+01 1.09900E+00 6.89026E+00 1.00000E+00
 1.60000E+01 9.26296E-01 5.81837E+00 1.00000E+00
 1.70000E+01 7.82337E-01 4.94139E+00 1.00000E+00
 1.80000E+01 6.57041E-01 4.05783E+00 1.00000E+00
 1.90000E+01 5.75504E-01 3.54359E+00 1.00000E+00
 2.00000E+01 4.99165E-01 3.02910E+00 1.00000E+00
