# n + 232Th   : (n,n')            Total
# Q-value    = 0.00000E+00
# E-threshold= 4.95836E-02
# # energies =    57
#     E          xs       gamma xs  xs/res.prod.xs
 1.00000E-11 0.00000E+00 0.00000E+00 0.00000E+00
 2.53000E-08 0.00000E+00 0.00000E+00 0.00000E+00
 2.00000E-07 0.00000E+00 0.00000E+00 0.00000E+00
 1.00000E-06 0.00000E+00 0.00000E+00 0.00000E+00
 1.00000E-05 0.00000E+00 0.00000E+00 0.00000E+00
 1.00000E-04 0.00000E+00 0.00000E+00 0.00000E+00
 1.00000E-03 0.00000E+00 0.00000E+00 0.00000E+00
 2.00000E-03 0.00000E+00 0.00000E+00 0.00000E+00
 5.00000E-03 0.00000E+00 0.00000E+00 0.00000E+00
 1.00000E-02 0.00000E+00 0.00000E+00 0.00000E+00
 2.00000E-02 0.00000E+00 0.00000E+00 0.00000E+00
 5.00000E-02 6.96251E-02 6.96251E-02 9.49084E-01
 1.00000E-01 4.39553E+02 4.39553E+02 9.99986E-01
 2.00000E-01 8.30375E+02 8.33372E+02 9.99902E-01
 4.00000E-01 1.22940E+03 1.28888E+03 9.99470E-01
 6.00000E-01 1.49638E+03 1.66931E+03 9.97933E-01
 8.00000E-01 1.89039E+03 2.46930E+03 9.95997E-01
 1.00000E+00 2.38862E+03 3.78697E+03 9.94954E-01
 1.20000E+00 2.74619E+03 5.04063E+03 9.93459E-01
 1.40000E+00 2.99529E+03 6.05928E+03 9.91718E-01
 1.60000E+00 3.12843E+03 6.71029E+03 9.89286E-01
 1.80000E+00 3.20446E+03 7.20069E+03 9.86278E-01
 2.00000E+00 3.27901E+03 7.69232E+03 9.82857E-01
 2.20000E+00 3.32391E+03 8.12725E+03 9.78993E-01
 2.40000E+00 3.33577E+03 8.48875E+03 9.74821E-01
 2.60000E+00 3.32446E+03 8.79069E+03 9.70876E-01
 2.80000E+00 3.30024E+03 9.05500E+03 9.67030E-01
 3.00000E+00 3.27021E+03 9.29708E+03 9.63126E-01
 3.50000E+00 3.25567E+03 1.00313E+04 9.55554E-01
 4.00000E+00 3.16961E+03 1.05257E+04 9.50455E-01
 4.50000E+00 3.08709E+03 1.09603E+04 9.48713E-01
 5.00000E+00 3.01413E+03 1.13765E+04 9.49431E-01
 5.50000E+00 2.93284E+03 1.16983E+04 9.52161E-01
 6.00000E+00 2.87533E+03 1.25980E+04 9.95284E-01
 6.50000E+00 2.67301E+03 1.23518E+04 9.98416E-01
 7.00000E+00 2.16952E+03 1.02998E+04 9.98848E-01
 7.50000E+00 1.71967E+03 8.20401E+03 9.98932E-01
 8.00000E+00 1.43699E+03 6.85783E+03 9.98973E-01
 8.50000E+00 1.25121E+03 5.97506E+03 9.99009E-01
 9.00000E+00 1.19182E+03 5.86898E+03 9.99096E-01
 9.50000E+00 1.07013E+03 5.24953E+03 9.99112E-01
 1.00000E+01 1.01724E+03 5.07527E+03 9.99132E-01
 1.05000E+01 9.38425E+02 4.69050E+03 9.99095E-01
 1.10000E+01 8.72817E+02 4.37771E+03 9.99027E-01
 1.15000E+01 7.86173E+02 3.84673E+03 9.98892E-01
 1.20000E+01 7.45855E+02 3.67654E+03 9.98749E-01
 1.25000E+01 6.78274E+02 3.26015E+03 9.98525E-01
 1.30000E+01 6.52616E+02 3.17219E+03 9.98295E-01
 1.35000E+01 6.06162E+02 2.88868E+03 9.98005E-01
 1.40000E+01 5.64624E+02 2.64388E+03 9.97661E-01
 1.45000E+01 5.34114E+02 2.47985E+03 9.97297E-01
 1.50000E+01 5.03614E+02 2.31029E+03 9.96889E-01
 1.60000E+01 4.60027E+02 2.09298E+03 9.96187E-01
 1.70000E+01 4.20758E+02 1.87521E+03 9.95517E-01
 1.80000E+01 4.00216E+02 1.81446E+03 9.95157E-01
 1.90000E+01 3.71153E+02 1.66521E+03 9.94891E-01
 2.00000E+01 3.46035E+02 1.52755E+03 9.94830E-01
