# n +  28Si   : (n,p)             Total
# Q-value    =-3.85972E+00
# E-threshold= 3.99888E+00
# # energies =    50
#     E          xs       gamma xs  xs/res.prod.xs
 1.00000E-01 0.00000E+00 0.00000E+00 0.00000E+00
 2.00000E-01 0.00000E+00 0.00000E+00 0.00000E+00
 4.00000E-01 0.00000E+00 0.00000E+00 0.00000E+00
 6.00000E-01 0.00000E+00 0.00000E+00 0.00000E+00
 8.00000E-01 0.00000E+00 0.00000E+00 0.00000E+00
 1.00000E+00 0.00000E+00 0.00000E+00 0.00000E+00
 1.20000E+00 0.00000E+00 0.00000E+00 0.00000E+00
 1.40000E+00 0.00000E+00 0.00000E+00 0.00000E+00
 1.60000E+00 0.00000E+00 0.00000E+00 0.00000E+00
 1.80000E+00 0.00000E+00 0.00000E+00 0.00000E+00
 2.00000E+00 0.00000E+00 0.00000E+00 0.00000E+00
 2.20000E+00 0.00000E+00 0.00000E+00 0.00000E+00
 2.40000E+00 0.00000E+00 0.00000E+00 0.00000E+00
 2.60000E+00 0.00000E+00 0.00000E+00 0.00000E+00
 2.80000E+00 0.00000E+00 0.00000E+00 0.00000E+00
 3.00000E+00 0.00000E+00 0.00000E+00 0.00000E+00
 3.20000E+00 0.00000E+00 0.00000E+00 0.00000E+00
 3.40000E+00 0.00000E+00 0.00000E+00 0.00000E+00
 3.60000E+00 0.00000E+00 0.00000E+00 0.00000E+00
 3.80000E+00 0.00000E+00 0.00000E+00 0.00000E+00
 4.00000E+00 0.00000E+00 0.00000E+00 0.00000E+00
 4.20000E+00 0.00000E+00 0.00000E+00 0.00000E+00
 4.40000E+00 2.20823E-03 8.68081E-04 1.00000E+00
 4.60000E+00 8.77938E-02 3.71948E-02 1.00000E+00
 4.80000E+00 7.91215E-01 3.61659E-01 1.00000E+00
 5.00000E+00 3.22120E+00 1.58179E+00 1.00000E+00
 5.20000E+00 9.07038E+00 4.61367E+00 1.00000E+00
 5.40000E+00 1.96721E+01 1.01295E+01 1.00000E+00
 5.60000E+00 3.60412E+01 1.87003E+01 1.00000E+00
 5.80000E+00 5.81923E+01 3.05373E+01 1.00000E+00
 6.00000E+00 8.50448E+01 4.56043E+01 1.00000E+00
 6.20000E+00 1.14705E+02 6.37822E+01 1.00000E+00
 6.40000E+00 1.45286E+02 8.52374E+01 1.00000E+00
 6.60000E+00 1.71444E+02 1.08284E+02 9.99999E-01
 6.80000E+00 1.91306E+02 1.32140E+02 9.99999E-01
 7.00000E+00 2.11260E+02 1.60003E+02 9.99999E-01
 7.20000E+00 2.26863E+02 1.88187E+02 9.99998E-01
 7.40000E+00 2.36952E+02 2.15055E+02 9.99998E-01
 7.60000E+00 2.50185E+02 2.46134E+02 9.99997E-01
 7.80000E+00 2.57822E+02 2.71852E+02 9.99996E-01
 8.00000E+00 2.63604E+02 2.95028E+02 9.99996E-01
 8.50000E+00 2.81589E+02 3.56400E+02 9.99992E-01
 9.00000E+00 2.97847E+02 4.12768E+02 9.99988E-01
 9.50000E+00 3.12876E+02 4.64435E+02 9.99983E-01
 1.00000E+01 3.27883E+02 5.16007E+02 9.99976E-01
 1.20000E+01 3.56650E+02 6.69426E+02 9.99932E-01
 1.40000E+01 3.49985E+02 7.41438E+02 9.99854E-01
 1.60000E+01 2.24817E+02 4.95697E+02 9.99618E-01
 1.80000E+01 1.20580E+02 2.69612E+02 9.99018E-01
 2.00000E+01 6.54430E+01 1.47203E+02 9.97895E-01
