# n + 209Bi: alpha    DDX spectrum
# E-incident =   63.00000
# Angle      = 110.000
# # energies =   230
#  E-out    Total       Direct    Pre-equil.  Mult. preeq  Compound
   0.700 0.00000E+00 0.00000E+00 0.00000E+00 0.00000E+00 0.00000E+00
   0.800 0.00000E+00 0.00000E+00 0.00000E+00 0.00000E+00 0.00000E+00
   0.900 0.00000E+00 0.00000E+00 0.00000E+00 0.00000E+00 0.00000E+00
   1.000 0.00000E+00 0.00000E+00 0.00000E+00 0.00000E+00 0.00000E+00
   1.100 0.00000E+00 0.00000E+00 0.00000E+00 0.00000E+00 0.00000E+00
   1.200 0.00000E+00 0.00000E+00 0.00000E+00 0.00000E+00 0.00000E+00
   1.300 0.00000E+00 0.00000E+00 0.00000E+00 0.00000E+00 0.00000E+00
   1.400 0.00000E+00 0.00000E+00 0.00000E+00 0.00000E+00 0.00000E+00
   1.500 0.00000E+00 0.00000E+00 0.00000E+00 0.00000E+00 0.00000E+00
   1.600 0.00000E+00 0.00000E+00 0.00000E+00 0.00000E+00 0.00000E+00
   1.700 0.00000E+00 0.00000E+00 0.00000E+00 0.00000E+00 0.00000E+00
   1.800 0.00000E+00 0.00000E+00 0.00000E+00 0.00000E+00 0.00000E+00
   1.900 0.00000E+00 0.00000E+00 0.00000E+00 0.00000E+00 0.00000E+00
   2.000 0.00000E+00 0.00000E+00 0.00000E+00 0.00000E+00 0.00000E+00
   2.200 0.00000E+00 0.00000E+00 0.00000E+00 0.00000E+00 0.00000E+00
   2.400 0.00000E+00 0.00000E+00 0.00000E+00 0.00000E+00 0.00000E+00
   2.600 0.00000E+00 0.00000E+00 0.00000E+00 0.00000E+00 0.00000E+00
   2.800 0.00000E+00 0.00000E+00 0.00000E+00 0.00000E+00 0.00000E+00
   3.000 1.40130E-45 0.00000E+00 1.40130E-45 0.00000E+00 0.00000E+00
   3.200 2.55036E-43 0.00000E+00 2.55036E-43 0.00000E+00 0.00000E+00
   3.400 1.38772E-40 0.00000E+00 1.38772E-40 0.00000E+00 0.00000E+00
   3.600 1.54433E-38 0.00000E+00 1.54433E-38 0.00000E+00 0.00000E+00
   3.800 8.38408E-37 0.00000E+00 8.38408E-37 0.00000E+00 0.00000E+00
   4.000 3.57198E-35 0.00000E+00 3.57198E-35 0.00000E+00 0.00000E+00
   4.500 1.10262E-31 0.00000E+00 1.10262E-31 0.00000E+00 0.00000E+00
   5.000 8.50511E-29 0.00000E+00 8.50511E-29 0.00000E+00 0.00000E+00
   5.500 2.49519E-26 0.00000E+00 2.49519E-26 0.00000E+00 0.00000E+00
   6.000 3.04360E-24 0.00000E+00 3.04360E-24 0.00000E+00 0.00000E+00
   6.500 2.72798E-22 0.00000E+00 2.72798E-22 0.00000E+00 0.00000E+00
   7.000 1.46477E-20 0.00000E+00 1.46477E-20 0.00000E+00 0.00000E+00
   7.500 5.62171E-19 0.00000E+00 5.62171E-19 0.00000E+00 0.00000E+00
   8.000 1.42963E-17 0.00000E+00 1.42963E-17 0.00000E+00 0.00000E+00
   8.500 2.40830E-16 0.00000E+00 2.40830E-16 0.00000E+00 0.00000E+00
   9.000 3.21009E-15 0.00000E+00 3.21009E-15 0.00000E+00 0.00000E+00
   9.500 7.90720E-13 0.00000E+00 3.56566E-14 0.00000E+00 7.55064E-13
  10.000 3.72724E-11 0.00000E+00 3.31925E-13 0.00000E+00 3.69405E-11
  10.500 1.35628E-08 0.00000E+00 2.62758E-12 0.00000E+00 1.35602E-08
  11.000 6.10123E-07 0.00000E+00 1.80055E-11 0.00000E+00 6.10105E-07
  11.500 3.55061E-06 0.00000E+00 1.08860E-10 0.00000E+00 3.55050E-06
  12.000 1.57807E-05 0.00000E+00 5.91461E-10 0.00000E+00 1.57801E-05
  12.500 5.25811E-05 0.00000E+00 2.93363E-09 0.00000E+00 5.25782E-05
  13.000 1.38941E-04 0.00000E+00 1.51243E-08 0.00000E+00 1.38926E-04
  13.500 3.42962E-04 0.00000E+00 6.77905E-08 0.00000E+00 3.42894E-04
  14.000 6.75528E-04 0.00000E+00 2.61643E-07 0.00000E+00 6.75266E-04
  14.500 1.34349E-03 0.00000E+00 8.94452E-07 0.00000E+00 1.34260E-03
  15.000 2.48466E-03 0.00000E+00 2.76846E-06 0.00000E+00 2.48189E-03
  15.500 4.39026E-03 0.00000E+00 7.90062E-06 0.00000E+00 4.38236E-03
  16.000 7.07815E-03 0.00000E+00 2.10802E-05 0.00000E+00 7.05707E-03
  16.500 1.13138E-02 0.00000E+00 5.30582E-05 0.00000E+00 1.12608E-02
  17.000 1.76180E-02 0.00000E+00 1.26454E-04 0.00000E+00 1.74916E-02
  17.500 2.48412E-02 0.00000E+00 2.81350E-04 0.00000E+00 2.45599E-02
  18.000 3.29763E-02 0.00000E+00 5.92554E-04 0.00000E+00 3.23838E-02
  18.500 4.27057E-02 0.00000E+00 1.17402E-03 0.00000E+00 4.15317E-02
  19.000 5.18830E-02 0.00000E+00 2.17971E-03 0.00000E+00 4.97033E-02
  19.500 5.84916E-02 0.00000E+00 3.77282E-03 0.00000E+00 5.47188E-02
  20.000 6.26309E-02 0.00000E+00 5.90983E-03 0.00000E+00 5.67211E-02
  21.000 6.25132E-02 0.00000E+00 1.16902E-02 0.00000E+00 5.08230E-02
  22.000 5.47880E-02 0.00000E+00 1.84588E-02 0.00000E+00 3.63292E-02
  23.000 4.72502E-02 0.00000E+00 2.48983E-02 0.00000E+00 2.23519E-02
  24.000 4.21000E-02 0.00000E+00 3.03345E-02 0.00000E+00 1.17655E-02
  25.000 3.99239E-02 0.00000E+00 3.39074E-02 0.00000E+00 6.01642E-03
  26.000 3.86147E-02 0.00000E+00 3.58439E-02 0.00000E+00 2.77082E-03
  27.000 3.92261E-02 0.00000E+00 3.79254E-02 0.00000E+00 1.30062E-03
  28.000 3.96935E-02 0.00000E+00 3.91023E-02 0.00000E+00 5.91268E-04
  29.000 3.97668E-02 0.00000E+00 3.95005E-02 0.00000E+00 2.66351E-04
  30.000 3.93607E-02 0.00000E+00 3.92395E-02 0.00000E+00 1.21173E-04
  31.000 3.84821E-02 0.00000E+00 3.84304E-02 0.00000E+00 5.16652E-05
  32.000 3.71980E-02 0.00000E+00 3.71745E-02 0.00000E+00 2.34602E-05
  33.000 3.55700E-02 0.00000E+00 3.55604E-02 0.00000E+00 9.55222E-06
  34.000 3.36184E-02 0.00000E+00 3.36142E-02 0.00000E+00 4.16307E-06
  35.000 3.14426E-02 0.00000E+00 3.14408E-02 0.00000E+00 1.78524E-06
  36.000 2.91377E-02 0.00000E+00 2.91369E-02 0.00000E+00 7.49793E-07
  37.000 2.67546E-02 0.00000E+00 2.67543E-02 0.00000E+00 3.22333E-07
  38.000 2.43389E-02 0.00000E+00 2.43388E-02 0.00000E+00 1.31179E-07
  39.000 2.19276E-02 0.00000E+00 2.19275E-02 0.00000E+00 5.43995E-08
  40.000 1.95963E-02 0.00000E+00 1.95963E-02 0.00000E+00 2.17704E-08
  42.000 1.52932E-02 0.00000E+00 1.52932E-02 0.00000E+00 3.91327E-09
  44.000 1.15656E-02 0.00000E+00 1.15656E-02 0.00000E+00 5.89331E-10
  46.000 8.46423E-03 0.00000E+00 8.46423E-03 0.00000E+00 1.42580E-13
  48.000 5.98240E-03 0.00000E+00 5.98240E-03 0.00000E+00 0.00000E+00
  50.000 4.07253E-03 0.00000E+00 4.07253E-03 0.00000E+00 0.00000E+00
  52.000 2.66121E-03 0.00000E+00 2.66121E-03 0.00000E+00 0.00000E+00
  54.000 1.66209E-03 0.00000E+00 1.66209E-03 0.00000E+00 0.00000E+00
  56.000 9.86789E-04 0.00000E+00 9.86789E-04 0.00000E+00 0.00000E+00
  58.000 5.52950E-04 0.00000E+00 5.52950E-04 0.00000E+00 0.00000E+00
  60.000 2.89609E-04 0.00000E+00 2.89609E-04 0.00000E+00 0.00000E+00
  62.000 1.39804E-04 0.00000E+00 1.39804E-04 0.00000E+00 0.00000E+00
  64.000 6.08612E-05 0.00000E+00 6.08612E-05 0.00000E+00 0.00000E+00
  66.000 2.30096E-05 0.00000E+00 2.30096E-05 0.00000E+00 0.00000E+00
  68.000 6.99376E-06 0.00000E+00 6.99376E-06 0.00000E+00 0.00000E+00
  68.100 6.70742E-06 3.97755E-08 6.66764E-06 0.00000E+00 0.00000E+00
  68.200 6.40372E-06 6.21990E-08 6.34153E-06 0.00000E+00 0.00000E+00
  68.300 6.10986E-06 9.44762E-08 6.01538E-06 0.00000E+00 0.00000E+00
  68.400 5.82865E-06 1.39382E-07 5.68926E-06 0.00000E+00 0.00000E+00
  68.500 5.56288E-06 1.99734E-07 5.36315E-06 0.00000E+00 0.00000E+00
  68.600 5.31504E-06 2.78012E-07 5.03703E-06 0.00000E+00 0.00000E+00
  68.700 5.08679E-06 3.75877E-07 4.71091E-06 0.00000E+00 0.00000E+00
  68.800 4.87842E-06 4.93650E-07 4.38477E-06 0.00000E+00 0.00000E+00
  68.900 4.68842E-06 6.29765E-07 4.05865E-06 0.00000E+00 0.00000E+00
  69.000 4.51300E-06 7.80467E-07 3.73253E-06 0.00000E+00 0.00000E+00
  69.100 4.34610E-06 9.39685E-07 3.40642E-06 0.00000E+00 0.00000E+00
  69.200 4.17959E-06 1.09929E-06 3.08030E-06 0.00000E+00 0.00000E+00
  69.300 4.00393E-06 1.24977E-06 2.75416E-06 0.00000E+00 0.00000E+00
  69.400 3.80923E-06 1.38119E-06 2.42804E-06 0.00000E+00 0.00000E+00
  69.500 3.58640E-06 1.48448E-06 2.10192E-06 0.00000E+00 0.00000E+00
  69.600 3.32853E-06 1.55273E-06 1.77580E-06 0.00000E+00 0.00000E+00
  69.700 3.03192E-06 1.58223E-06 1.44969E-06 0.00000E+00 0.00000E+00
  69.800 2.69679E-06 1.57325E-06 1.12354E-06 0.00000E+00 0.00000E+00
  69.900 2.32755E-06 1.53013E-06 7.97426E-07 0.00000E+00 0.00000E+00
  70.000 1.93217E-06 1.46087E-06 4.71309E-07 0.00000E+00 0.00000E+00
  70.100 1.82387E-06 1.37612E-06 4.47743E-07 0.00000E+00 0.00000E+00
  70.200 1.71200E-06 1.28782E-06 4.24178E-07 0.00000E+00 0.00000E+00
  70.300 1.60818E-06 1.20757E-06 4.00611E-07 0.00000E+00 0.00000E+00
  70.400 1.52230E-06 1.14525E-06 3.77046E-07 0.00000E+00 0.00000E+00
  70.500 1.46123E-06 1.10775E-06 3.53481E-07 0.00000E+00 0.00000E+00
  70.600 1.42815E-06 1.09824E-06 3.29916E-07 0.00000E+00 0.00000E+00
  70.700 1.42233E-06 1.11598E-06 3.06351E-07 0.00000E+00 0.00000E+00
  70.800 1.43938E-06 1.15660E-06 2.82784E-07 0.00000E+00 0.00000E+00
  70.900 1.47205E-06 1.21283E-06 2.59219E-07 0.00000E+00 0.00000E+00
  71.000 1.51122E-06 1.27556E-06 2.35654E-07 0.00000E+00 0.00000E+00
  71.100 1.54713E-06 1.33504E-06 2.12089E-07 0.00000E+00 0.00000E+00
  71.200 1.57058E-06 1.38205E-06 1.88524E-07 0.00000E+00 0.00000E+00
  71.300 1.57391E-06 1.40895E-06 1.64957E-07 0.00000E+00 0.00000E+00
  71.400 1.55180E-06 1.41041E-06 1.41392E-07 0.00000E+00 0.00000E+00
  71.500 1.50165E-06 1.38383E-06 1.17827E-07 0.00000E+00 0.00000E+00
  71.600 1.42364E-06 1.32937E-06 9.42620E-08 0.00000E+00 0.00000E+00
  71.700 1.32040E-06 1.24971E-06 7.06970E-08 0.00000E+00 0.00000E+00
  71.800 1.19653E-06 1.14940E-06 4.71301E-08 0.00000E+00 0.00000E+00
  71.900 1.05788E-06 1.03432E-06 2.35651E-08 0.00000E+00 0.00000E+00
  72.000 9.10791E-07 9.10791E-07 0.00000E+00 0.00000E+00 0.00000E+00
  72.100 7.84998E-07 7.84998E-07 0.00000E+00 0.00000E+00 0.00000E+00
  72.200 6.62413E-07 6.62413E-07 0.00000E+00 0.00000E+00 0.00000E+00
  72.300 5.47425E-07 5.47425E-07 0.00000E+00 0.00000E+00 0.00000E+00
  72.400 4.43201E-07 4.43201E-07 0.00000E+00 0.00000E+00 0.00000E+00
  72.500 3.51621E-07 3.51621E-07 0.00000E+00 0.00000E+00 0.00000E+00
  72.600 2.73439E-07 2.73439E-07 0.00000E+00 0.00000E+00 0.00000E+00
  72.700 2.08473E-07 2.08473E-07 0.00000E+00 0.00000E+00 0.00000E+00
  72.800 1.55851E-07 1.55851E-07 0.00000E+00 0.00000E+00 0.00000E+00
  72.900 1.14264E-07 1.14264E-07 0.00000E+00 0.00000E+00 0.00000E+00
  73.000 8.21621E-08 8.21621E-08 0.00000E+00 0.00000E+00 0.00000E+00
  73.100 5.79422E-08 5.79422E-08 0.00000E+00 0.00000E+00 0.00000E+00
  73.200 4.00740E-08 4.00740E-08 0.00000E+00 0.00000E+00 0.00000E+00
  73.300 2.71782E-08 2.71782E-08 0.00000E+00 0.00000E+00 0.00000E+00
  73.400 1.80732E-08 1.80732E-08 0.00000E+00 0.00000E+00 0.00000E+00
  73.500 1.17820E-08 1.17820E-08 0.00000E+00 0.00000E+00 0.00000E+00
  73.600 7.52803E-09 7.52803E-09 0.00000E+00 0.00000E+00 0.00000E+00
  73.700 4.71334E-09 4.71334E-09 0.00000E+00 0.00000E+00 0.00000E+00
  73.800 2.89095E-09 2.89095E-09 0.00000E+00 0.00000E+00 0.00000E+00
  73.900 1.73678E-09 1.73678E-09 0.00000E+00 0.00000E+00 0.00000E+00
  74.000 1.02169E-09 1.02169E-09 0.00000E+00 0.00000E+00 0.00000E+00
  74.100 5.88385E-10 5.88385E-10 0.00000E+00 0.00000E+00 0.00000E+00
  74.200 3.31645E-10 3.31645E-10 0.00000E+00 0.00000E+00 0.00000E+00
  74.300 1.82911E-10 1.82911E-10 0.00000E+00 0.00000E+00 0.00000E+00
  74.400 9.86996E-11 9.86996E-11 0.00000E+00 0.00000E+00 0.00000E+00
  74.500 5.20951E-11 5.20951E-11 0.00000E+00 0.00000E+00 0.00000E+00
  74.600 2.68913E-11 2.68913E-11 0.00000E+00 0.00000E+00 0.00000E+00
  74.700 1.35735E-11 1.35735E-11 0.00000E+00 0.00000E+00 0.00000E+00
  74.800 6.69810E-12 6.69810E-12 0.00000E+00 0.00000E+00 0.00000E+00
  74.900 3.23135E-12 3.23135E-12 0.00000E+00 0.00000E+00 0.00000E+00
  75.000 1.52376E-12 1.52376E-12 0.00000E+00 0.00000E+00 0.00000E+00
  75.100 7.02264E-13 7.02264E-13 0.00000E+00 0.00000E+00 0.00000E+00
  75.200 3.16299E-13 3.16299E-13 0.00000E+00 0.00000E+00 0.00000E+00
  75.300 1.39201E-13 1.39201E-13 0.00000E+00 0.00000E+00 0.00000E+00
  75.400 5.98618E-14 5.98618E-14 0.00000E+00 0.00000E+00 0.00000E+00
  75.500 2.51514E-14 2.51514E-14 0.00000E+00 0.00000E+00 0.00000E+00
  75.600 1.03240E-14 1.03240E-14 0.00000E+00 0.00000E+00 0.00000E+00
  75.700 4.13972E-15 4.13972E-15 0.00000E+00 0.00000E+00 0.00000E+00
  75.800 1.62134E-15 1.62134E-15 0.00000E+00 0.00000E+00 0.00000E+00
  75.900 6.20273E-16 6.20273E-16 0.00000E+00 0.00000E+00 0.00000E+00
  76.000 2.31760E-16 2.31760E-16 0.00000E+00 0.00000E+00 0.00000E+00
  76.100 8.45684E-17 8.45684E-17 0.00000E+00 0.00000E+00 0.00000E+00
  76.200 3.01341E-17 3.01341E-17 0.00000E+00 0.00000E+00 0.00000E+00
  76.300 1.04838E-17 1.04838E-17 0.00000E+00 0.00000E+00 0.00000E+00
  76.400 3.56143E-18 3.56143E-18 0.00000E+00 0.00000E+00 0.00000E+00
  76.500 1.18116E-18 1.18116E-18 0.00000E+00 0.00000E+00 0.00000E+00
  76.600 3.82414E-19 3.82414E-19 0.00000E+00 0.00000E+00 0.00000E+00
  76.700 1.20855E-19 1.20855E-19 0.00000E+00 0.00000E+00 0.00000E+00
  76.800 3.72753E-20 3.72753E-20 0.00000E+00 0.00000E+00 0.00000E+00
  76.900 1.12214E-20 1.12214E-20 0.00000E+00 0.00000E+00 0.00000E+00
  77.000 3.29662E-21 3.29662E-21 0.00000E+00 0.00000E+00 0.00000E+00
  77.100 9.45032E-22 9.45032E-22 0.00000E+00 0.00000E+00 0.00000E+00
  77.200 2.64329E-22 2.64329E-22 0.00000E+00 0.00000E+00 0.00000E+00
  77.300 7.21249E-23 7.21249E-23 0.00000E+00 0.00000E+00 0.00000E+00
  77.400 1.92007E-23 1.92007E-23 0.00000E+00 0.00000E+00 0.00000E+00
  77.500 4.98617E-24 4.98617E-24 0.00000E+00 0.00000E+00 0.00000E+00
  77.600 1.26299E-24 1.26299E-24 0.00000E+00 0.00000E+00 0.00000E+00
  77.700 3.12020E-25 3.12020E-25 0.00000E+00 0.00000E+00 0.00000E+00
  77.800 7.51688E-26 7.51688E-26 0.00000E+00 0.00000E+00 0.00000E+00
  77.900 1.76616E-26 1.76616E-26 0.00000E+00 0.00000E+00 0.00000E+00
  78.000 4.04657E-27 4.04657E-27 0.00000E+00 0.00000E+00 0.00000E+00
  78.100 9.04018E-28 9.04018E-28 0.00000E+00 0.00000E+00 0.00000E+00
  78.200 1.96916E-28 1.96916E-28 0.00000E+00 0.00000E+00 0.00000E+00
  78.300 4.18138E-29 4.18138E-29 0.00000E+00 0.00000E+00 0.00000E+00
  78.400 8.65707E-30 8.65707E-30 0.00000E+00 0.00000E+00 0.00000E+00
  78.500 1.74731E-30 1.74731E-30 0.00000E+00 0.00000E+00 0.00000E+00
  78.600 3.43785E-31 3.43785E-31 0.00000E+00 0.00000E+00 0.00000E+00
  78.700 6.59340E-32 6.59340E-32 0.00000E+00 0.00000E+00 0.00000E+00
  78.800 1.23244E-32 1.23244E-32 0.00000E+00 0.00000E+00 0.00000E+00
  78.900 2.24568E-33 2.24568E-33 0.00000E+00 0.00000E+00 0.00000E+00
  79.000 3.98829E-34 3.98829E-34 0.00000E+00 0.00000E+00 0.00000E+00
  79.100 6.90345E-35 6.90345E-35 0.00000E+00 0.00000E+00 0.00000E+00
  79.200 1.16460E-35 1.16460E-35 0.00000E+00 0.00000E+00 0.00000E+00
  79.300 1.91446E-36 1.91446E-36 0.00000E+00 0.00000E+00 0.00000E+00
  79.400 3.06747E-37 3.06747E-37 0.00000E+00 0.00000E+00 0.00000E+00
  79.500 4.78974E-38 4.78974E-38 0.00000E+00 0.00000E+00 0.00000E+00
  79.600 7.28835E-39 7.28835E-39 0.00000E+00 0.00000E+00 0.00000E+00
  79.700 1.08075E-39 1.08075E-39 0.00000E+00 0.00000E+00 0.00000E+00
  79.800 1.56145E-40 1.56145E-40 0.00000E+00 0.00000E+00 0.00000E+00
  79.900 2.19864E-41 2.19864E-41 0.00000E+00 0.00000E+00 0.00000E+00
  80.000 3.01700E-42 3.01700E-42 0.00000E+00 0.00000E+00 0.00000E+00
  80.100 4.03574E-43 4.03574E-43 0.00000E+00 0.00000E+00 0.00000E+00
  80.200 5.18480E-44 5.18480E-44 0.00000E+00 0.00000E+00 0.00000E+00
  80.300 7.00649E-45 7.00649E-45 0.00000E+00 0.00000E+00 0.00000E+00
  80.400 1.40130E-45 1.40130E-45 0.00000E+00 0.00000E+00 0.00000E+00
  80.500 0.00000E+00 0.00000E+00 0.00000E+00 0.00000E+00 0.00000E+00
  80.600 0.00000E+00 0.00000E+00 0.00000E+00 0.00000E+00 0.00000E+00
  80.700 0.00000E+00 0.00000E+00 0.00000E+00 0.00000E+00 0.00000E+00
  80.800 0.00000E+00 0.00000E+00 0.00000E+00 0.00000E+00 0.00000E+00
  80.900 0.00000E+00 0.00000E+00 0.00000E+00 0.00000E+00 0.00000E+00
  81.000 0.00000E+00 0.00000E+00 0.00000E+00 0.00000E+00 0.00000E+00
  81.100 0.00000E+00 0.00000E+00 0.00000E+00 0.00000E+00 0.00000E+00
  81.200 0.00000E+00 0.00000E+00 0.00000E+00 0.00000E+00 0.00000E+00
  81.300 0.00000E+00 0.00000E+00 0.00000E+00 0.00000E+00 0.00000E+00
  81.400 0.00000E+00 0.00000E+00 0.00000E+00 0.00000E+00 0.00000E+00
  81.500 0.00000E+00 0.00000E+00 0.00000E+00 0.00000E+00 0.00000E+00
  81.600 0.00000E+00 0.00000E+00 0.00000E+00 0.00000E+00 0.00000E+00
  81.700 0.00000E+00 0.00000E+00 0.00000E+00 0.00000E+00 0.00000E+00
  81.800 0.00000E+00 0.00000E+00 0.00000E+00 0.00000E+00 0.00000E+00
  81.900 0.00000E+00 0.00000E+00 0.00000E+00 0.00000E+00 0.00000E+00
  82.000 0.00000E+00 0.00000E+00 0.00000E+00 0.00000E+00 0.00000E+00
