# n + 209Bi: alpha    DDX spectrum
# E-incident =   63.00000
# Angle      =  20.000
# # energies =   230
#  E-out    Total       Direct    Pre-equil.  Mult. preeq  Compound
   0.700 0.00000E+00 0.00000E+00 0.00000E+00 0.00000E+00 0.00000E+00
   0.800 0.00000E+00 0.00000E+00 0.00000E+00 0.00000E+00 0.00000E+00
   0.900 0.00000E+00 0.00000E+00 0.00000E+00 0.00000E+00 0.00000E+00
   1.000 0.00000E+00 0.00000E+00 0.00000E+00 0.00000E+00 0.00000E+00
   1.100 0.00000E+00 0.00000E+00 0.00000E+00 0.00000E+00 0.00000E+00
   1.200 0.00000E+00 0.00000E+00 0.00000E+00 0.00000E+00 0.00000E+00
   1.300 0.00000E+00 0.00000E+00 0.00000E+00 0.00000E+00 0.00000E+00
   1.400 0.00000E+00 0.00000E+00 0.00000E+00 0.00000E+00 0.00000E+00
   1.500 0.00000E+00 0.00000E+00 0.00000E+00 0.00000E+00 0.00000E+00
   1.600 0.00000E+00 0.00000E+00 0.00000E+00 0.00000E+00 0.00000E+00
   1.700 0.00000E+00 0.00000E+00 0.00000E+00 0.00000E+00 0.00000E+00
   1.800 0.00000E+00 0.00000E+00 0.00000E+00 0.00000E+00 0.00000E+00
   1.900 0.00000E+00 0.00000E+00 0.00000E+00 0.00000E+00 0.00000E+00
   2.000 0.00000E+00 0.00000E+00 0.00000E+00 0.00000E+00 0.00000E+00
   2.200 0.00000E+00 0.00000E+00 0.00000E+00 0.00000E+00 0.00000E+00
   2.400 0.00000E+00 0.00000E+00 0.00000E+00 0.00000E+00 0.00000E+00
   2.600 0.00000E+00 0.00000E+00 0.00000E+00 0.00000E+00 0.00000E+00
   2.800 0.00000E+00 0.00000E+00 0.00000E+00 0.00000E+00 0.00000E+00
   3.000 1.40130E-45 0.00000E+00 1.40130E-45 0.00000E+00 0.00000E+00
   3.200 2.50832E-43 0.00000E+00 2.50832E-43 0.00000E+00 0.00000E+00
   3.400 1.37624E-40 0.00000E+00 1.37624E-40 0.00000E+00 0.00000E+00
   3.600 1.54734E-38 0.00000E+00 1.54734E-38 0.00000E+00 0.00000E+00
   3.800 8.48699E-37 0.00000E+00 8.48699E-37 0.00000E+00 0.00000E+00
   4.000 3.65309E-35 0.00000E+00 3.65309E-35 0.00000E+00 0.00000E+00
   4.500 1.15694E-31 0.00000E+00 1.15694E-31 0.00000E+00 0.00000E+00
   5.000 9.15589E-29 0.00000E+00 9.15589E-29 0.00000E+00 0.00000E+00
   5.500 2.75589E-26 0.00000E+00 2.75589E-26 0.00000E+00 0.00000E+00
   6.000 3.44895E-24 0.00000E+00 3.44895E-24 0.00000E+00 0.00000E+00
   6.500 3.17167E-22 0.00000E+00 3.17167E-22 0.00000E+00 0.00000E+00
   7.000 1.74731E-20 0.00000E+00 1.74731E-20 0.00000E+00 0.00000E+00
   7.500 6.88070E-19 0.00000E+00 6.88070E-19 0.00000E+00 0.00000E+00
   8.000 1.79540E-17 0.00000E+00 1.79540E-17 0.00000E+00 0.00000E+00
   8.500 3.10336E-16 0.00000E+00 3.10336E-16 0.00000E+00 0.00000E+00
   9.000 4.24461E-15 0.00000E+00 4.24461E-15 0.00000E+00 0.00000E+00
   9.500 8.03445E-13 0.00000E+00 4.83811E-14 0.00000E+00 7.55064E-13
  10.000 3.74027E-11 0.00000E+00 4.62179E-13 0.00000E+00 3.69405E-11
  10.500 1.35640E-08 0.00000E+00 3.75475E-12 0.00000E+00 1.35602E-08
  11.000 6.10131E-07 0.00000E+00 2.64063E-11 0.00000E+00 6.10105E-07
  11.500 3.55066E-06 0.00000E+00 1.63861E-10 0.00000E+00 3.55050E-06
  12.000 1.57810E-05 0.00000E+00 9.13837E-10 0.00000E+00 1.57801E-05
  12.500 5.25828E-05 0.00000E+00 4.65279E-09 0.00000E+00 5.25782E-05
  13.000 1.38950E-04 0.00000E+00 2.46256E-08 0.00000E+00 1.38926E-04
  13.500 3.43008E-04 0.00000E+00 1.13323E-07 0.00000E+00 3.42894E-04
  14.000 6.75715E-04 0.00000E+00 4.49099E-07 0.00000E+00 6.75266E-04
  14.500 1.34417E-03 0.00000E+00 1.57659E-06 0.00000E+00 1.34260E-03
  15.000 2.48690E-03 0.00000E+00 5.01160E-06 0.00000E+00 2.48189E-03
  15.500 4.39705E-03 0.00000E+00 1.46903E-05 0.00000E+00 4.38236E-03
  16.000 7.09733E-03 0.00000E+00 4.02652E-05 0.00000E+00 7.05707E-03
  16.500 1.13649E-02 0.00000E+00 1.04125E-04 0.00000E+00 1.12608E-02
  17.000 1.77466E-02 0.00000E+00 2.55007E-04 0.00000E+00 1.74916E-02
  17.500 2.51430E-02 0.00000E+00 5.83109E-04 0.00000E+00 2.45599E-02
  18.000 3.36461E-02 0.00000E+00 1.26238E-03 0.00000E+00 3.23838E-02
  18.500 4.41031E-02 0.00000E+00 2.57141E-03 0.00000E+00 4.15317E-02
  19.000 5.46125E-02 0.00000E+00 4.90926E-03 0.00000E+00 4.97033E-02
  19.500 6.34584E-02 0.00000E+00 8.73963E-03 0.00000E+00 5.47188E-02
  20.000 7.08044E-02 0.00000E+00 1.40833E-02 0.00000E+00 5.67211E-02
  21.000 8.03255E-02 0.00000E+00 2.95026E-02 0.00000E+00 5.08230E-02
  22.000 8.57135E-02 0.00000E+00 4.93843E-02 0.00000E+00 3.63292E-02
  23.000 9.30463E-02 0.00000E+00 7.06944E-02 0.00000E+00 2.23519E-02
  24.000 1.03285E-01 0.00000E+00 9.15195E-02 0.00000E+00 1.17655E-02
  25.000 1.14863E-01 0.00000E+00 1.08847E-01 0.00000E+00 6.01642E-03
  26.000 1.25377E-01 0.00000E+00 1.22607E-01 0.00000E+00 2.77082E-03
  27.000 1.39751E-01 0.00000E+00 1.38450E-01 0.00000E+00 1.30062E-03
  28.000 1.53199E-01 0.00000E+00 1.52607E-01 0.00000E+00 5.91268E-04
  29.000 1.65382E-01 0.00000E+00 1.65115E-01 0.00000E+00 2.66351E-04
  30.000 1.76150E-01 0.00000E+00 1.76029E-01 0.00000E+00 1.21173E-04
  31.000 1.85463E-01 0.00000E+00 1.85411E-01 0.00000E+00 5.16652E-05
  32.000 1.93354E-01 0.00000E+00 1.93330E-01 0.00000E+00 2.34602E-05
  33.000 1.99845E-01 0.00000E+00 1.99836E-01 0.00000E+00 9.55222E-06
  34.000 2.04653E-01 0.00000E+00 2.04649E-01 0.00000E+00 4.16307E-06
  35.000 2.07952E-01 0.00000E+00 2.07951E-01 0.00000E+00 1.78524E-06
  36.000 2.09974E-01 0.00000E+00 2.09973E-01 0.00000E+00 7.49793E-07
  37.000 2.10727E-01 0.00000E+00 2.10726E-01 0.00000E+00 3.22333E-07
  38.000 2.10212E-01 0.00000E+00 2.10212E-01 0.00000E+00 1.31179E-07
  39.000 2.08396E-01 0.00000E+00 2.08396E-01 0.00000E+00 5.43995E-08
  40.000 2.05687E-01 0.00000E+00 2.05687E-01 0.00000E+00 2.17704E-08
  42.000 1.98114E-01 0.00000E+00 1.98114E-01 0.00000E+00 3.91327E-09
  44.000 1.88098E-01 0.00000E+00 1.88098E-01 0.00000E+00 5.89331E-10
  46.000 1.76098E-01 0.00000E+00 1.76098E-01 0.00000E+00 1.42580E-13
  48.000 1.62527E-01 0.00000E+00 1.62527E-01 0.00000E+00 0.00000E+00
  50.000 1.47754E-01 0.00000E+00 1.47754E-01 0.00000E+00 0.00000E+00
  52.000 1.32119E-01 0.00000E+00 1.32119E-01 0.00000E+00 0.00000E+00
  54.000 1.15937E-01 0.00000E+00 1.15937E-01 0.00000E+00 0.00000E+00
  56.000 9.95078E-02 0.00000E+00 9.95078E-02 0.00000E+00 0.00000E+00
  58.000 8.31230E-02 0.00000E+00 8.31230E-02 0.00000E+00 0.00000E+00
  60.000 6.70770E-02 0.00000E+00 6.70770E-02 0.00000E+00 0.00000E+00
  62.000 5.16833E-02 0.00000E+00 5.16833E-02 0.00000E+00 0.00000E+00
  64.000 3.72944E-02 0.00000E+00 3.72944E-02 0.00000E+00 0.00000E+00
  66.000 2.43321E-02 0.00000E+00 2.43321E-02 0.00000E+00 0.00000E+00
  68.000 1.33219E-02 0.00000E+00 1.33219E-02 0.00000E+00 0.00000E+00
  68.100 1.28693E-02 1.28872E-04 1.27404E-02 0.00000E+00 0.00000E+00
  68.200 1.23605E-02 2.01524E-04 1.21590E-02 0.00000E+00 0.00000E+00
  68.300 1.18836E-02 3.06102E-04 1.15775E-02 0.00000E+00 0.00000E+00
  68.400 1.14476E-02 4.51595E-04 1.09960E-02 0.00000E+00 0.00000E+00
  68.500 1.10617E-02 6.47135E-04 1.04146E-02 0.00000E+00 0.00000E+00
  68.600 1.07338E-02 9.00754E-04 9.83309E-03 0.00000E+00 0.00000E+00
  68.700 1.04695E-02 1.21784E-03 9.25163E-03 0.00000E+00 0.00000E+00
  68.800 1.02695E-02 1.59942E-03 8.67013E-03 0.00000E+00 0.00000E+00
  68.900 1.01291E-02 2.04043E-03 8.08866E-03 0.00000E+00 0.00000E+00
  69.000 1.00359E-02 2.52870E-03 7.50720E-03 0.00000E+00 0.00000E+00
  69.100 9.97031E-03 3.04457E-03 6.92574E-03 0.00000E+00 0.00000E+00
  69.200 9.90597E-03 3.56169E-03 6.34428E-03 0.00000E+00 0.00000E+00
  69.300 9.81202E-03 4.04925E-03 5.76278E-03 0.00000E+00 0.00000E+00
  69.400 9.65635E-03 4.47503E-03 5.18131E-03 0.00000E+00 0.00000E+00
  69.500 9.40956E-03 4.80971E-03 4.59985E-03 0.00000E+00 0.00000E+00
  69.600 9.04921E-03 5.03082E-03 4.01839E-03 0.00000E+00 0.00000E+00
  69.700 8.56335E-03 5.12642E-03 3.43693E-03 0.00000E+00 0.00000E+00
  69.800 7.95273E-03 5.09731E-03 2.85542E-03 0.00000E+00 0.00000E+00
  69.900 7.23155E-03 4.95759E-03 2.27396E-03 0.00000E+00 0.00000E+00
  70.000 6.42569E-03 4.73319E-03 1.69250E-03 0.00000E+00 0.00000E+00
  70.100 6.06650E-03 4.45862E-03 1.60788E-03 0.00000E+00 0.00000E+00
  70.200 5.69577E-03 4.17251E-03 1.52326E-03 0.00000E+00 0.00000E+00
  70.300 5.35114E-03 3.91252E-03 1.43863E-03 0.00000E+00 0.00000E+00
  70.400 5.06461E-03 3.71061E-03 1.35400E-03 0.00000E+00 0.00000E+00
  70.500 4.85846E-03 3.58909E-03 1.26938E-03 0.00000E+00 0.00000E+00
  70.600 4.74302E-03 3.55827E-03 1.18475E-03 0.00000E+00 0.00000E+00
  70.700 4.71588E-03 3.61575E-03 1.10013E-03 0.00000E+00 0.00000E+00
  70.800 4.76286E-03 3.74736E-03 1.01550E-03 0.00000E+00 0.00000E+00
  70.900 4.86043E-03 3.92955E-03 9.30875E-04 0.00000E+00 0.00000E+00
  71.000 4.97906E-03 4.13281E-03 8.46252E-04 0.00000E+00 0.00000E+00
  71.100 5.08715E-03 4.32552E-03 7.61628E-04 0.00000E+00 0.00000E+00
  71.200 5.15484E-03 4.47783E-03 6.77004E-04 0.00000E+00 0.00000E+00
  71.300 5.15736E-03 4.56498E-03 5.92374E-04 0.00000E+00 0.00000E+00
  71.400 5.07745E-03 4.56970E-03 5.07750E-04 0.00000E+00 0.00000E+00
  71.500 4.90670E-03 4.48358E-03 4.23126E-04 0.00000E+00 0.00000E+00
  71.600 4.64566E-03 4.30716E-03 3.38502E-04 0.00000E+00 0.00000E+00
  71.700 4.30291E-03 4.04903E-03 2.53878E-04 0.00000E+00 0.00000E+00
  71.800 3.89330E-03 3.72406E-03 1.69248E-04 0.00000E+00 0.00000E+00
  71.900 3.43580E-03 3.35118E-03 8.46238E-05 0.00000E+00 0.00000E+00
  72.000 2.95095E-03 2.95095E-03 0.00000E+00 0.00000E+00 0.00000E+00
  72.100 2.54338E-03 2.54338E-03 0.00000E+00 0.00000E+00 0.00000E+00
  72.200 2.14621E-03 2.14621E-03 0.00000E+00 0.00000E+00 0.00000E+00
  72.300 1.77365E-03 1.77365E-03 0.00000E+00 0.00000E+00 0.00000E+00
  72.400 1.43596E-03 1.43596E-03 0.00000E+00 0.00000E+00 0.00000E+00
  72.500 1.13925E-03 1.13925E-03 0.00000E+00 0.00000E+00 0.00000E+00
  72.600 8.85938E-04 8.85938E-04 0.00000E+00 0.00000E+00 0.00000E+00
  72.700 6.75450E-04 6.75450E-04 0.00000E+00 0.00000E+00 0.00000E+00
  72.800 5.04956E-04 5.04956E-04 0.00000E+00 0.00000E+00 0.00000E+00
  72.900 3.70215E-04 3.70215E-04 0.00000E+00 0.00000E+00 0.00000E+00
  73.000 2.66204E-04 2.66204E-04 0.00000E+00 0.00000E+00 0.00000E+00
  73.100 1.87732E-04 1.87732E-04 0.00000E+00 0.00000E+00 0.00000E+00
  73.200 1.29839E-04 1.29839E-04 0.00000E+00 0.00000E+00 0.00000E+00
  73.300 8.80571E-05 8.80571E-05 0.00000E+00 0.00000E+00 0.00000E+00
  73.400 5.85569E-05 5.85569E-05 0.00000E+00 0.00000E+00 0.00000E+00
  73.500 3.81734E-05 3.81734E-05 0.00000E+00 0.00000E+00 0.00000E+00
  73.600 2.43907E-05 2.43907E-05 0.00000E+00 0.00000E+00 0.00000E+00
  73.700 1.52711E-05 1.52711E-05 0.00000E+00 0.00000E+00 0.00000E+00
  73.800 9.36663E-06 9.36663E-06 0.00000E+00 0.00000E+00 0.00000E+00
  73.900 5.62713E-06 5.62713E-06 0.00000E+00 0.00000E+00 0.00000E+00
  74.000 3.31026E-06 3.31026E-06 0.00000E+00 0.00000E+00 0.00000E+00
  74.100 1.90636E-06 1.90636E-06 0.00000E+00 0.00000E+00 0.00000E+00
  74.200 1.07453E-06 1.07453E-06 0.00000E+00 0.00000E+00 0.00000E+00
  74.300 5.92631E-07 5.92631E-07 0.00000E+00 0.00000E+00 0.00000E+00
  74.400 3.19786E-07 3.19786E-07 0.00000E+00 0.00000E+00 0.00000E+00
  74.500 1.68787E-07 1.68787E-07 0.00000E+00 0.00000E+00 0.00000E+00
  74.600 8.71274E-08 8.71274E-08 0.00000E+00 0.00000E+00 0.00000E+00
  74.700 4.39779E-08 4.39779E-08 0.00000E+00 0.00000E+00 0.00000E+00
  74.800 2.17018E-08 2.17018E-08 0.00000E+00 0.00000E+00 0.00000E+00
  74.900 1.04695E-08 1.04695E-08 0.00000E+00 0.00000E+00 0.00000E+00
  75.000 4.93695E-09 4.93695E-09 0.00000E+00 0.00000E+00 0.00000E+00
  75.100 2.27533E-09 2.27533E-09 0.00000E+00 0.00000E+00 0.00000E+00
  75.200 1.02480E-09 1.02480E-09 0.00000E+00 0.00000E+00 0.00000E+00
  75.300 4.51008E-10 4.51008E-10 0.00000E+00 0.00000E+00 0.00000E+00
  75.400 1.93951E-10 1.93951E-10 0.00000E+00 0.00000E+00 0.00000E+00
  75.500 8.14902E-11 8.14902E-11 0.00000E+00 0.00000E+00 0.00000E+00
  75.600 3.34495E-11 3.34495E-11 0.00000E+00 0.00000E+00 0.00000E+00
  75.700 1.34126E-11 1.34126E-11 0.00000E+00 0.00000E+00 0.00000E+00
  75.800 5.25311E-12 5.25311E-12 0.00000E+00 0.00000E+00 0.00000E+00
  75.900 2.00968E-12 2.00968E-12 0.00000E+00 0.00000E+00 0.00000E+00
  76.000 7.50900E-13 7.50900E-13 0.00000E+00 0.00000E+00 0.00000E+00
  76.100 2.74000E-13 2.74000E-13 0.00000E+00 0.00000E+00 0.00000E+00
  76.200 9.76339E-14 9.76339E-14 0.00000E+00 0.00000E+00 0.00000E+00
  76.300 3.39673E-14 3.39673E-14 0.00000E+00 0.00000E+00 0.00000E+00
  76.400 1.15390E-14 1.15390E-14 0.00000E+00 0.00000E+00 0.00000E+00
  76.500 3.82695E-15 3.82695E-15 0.00000E+00 0.00000E+00 0.00000E+00
  76.600 1.23902E-15 1.23902E-15 0.00000E+00 0.00000E+00 0.00000E+00
  76.700 3.91568E-16 3.91568E-16 0.00000E+00 0.00000E+00 0.00000E+00
  76.800 1.20771E-16 1.20771E-16 0.00000E+00 0.00000E+00 0.00000E+00
  76.900 3.63572E-17 3.63572E-17 0.00000E+00 0.00000E+00 0.00000E+00
  77.000 1.06810E-17 1.06810E-17 0.00000E+00 0.00000E+00 0.00000E+00
  77.100 3.06189E-18 3.06189E-18 0.00000E+00 0.00000E+00 0.00000E+00
  77.200 8.56422E-19 8.56422E-19 0.00000E+00 0.00000E+00 0.00000E+00
  77.300 2.33684E-19 2.33684E-19 0.00000E+00 0.00000E+00 0.00000E+00
  77.400 6.22101E-20 6.22101E-20 0.00000E+00 0.00000E+00 0.00000E+00
  77.500 1.61551E-20 1.61551E-20 0.00000E+00 0.00000E+00 0.00000E+00
  77.600 4.09206E-21 4.09206E-21 0.00000E+00 0.00000E+00 0.00000E+00
  77.700 1.01094E-21 1.01094E-21 0.00000E+00 0.00000E+00 0.00000E+00
  77.800 2.43546E-22 2.43546E-22 0.00000E+00 0.00000E+00 0.00000E+00
  77.900 5.72234E-23 5.72234E-23 0.00000E+00 0.00000E+00 0.00000E+00
  78.000 1.31108E-23 1.31108E-23 0.00000E+00 0.00000E+00 0.00000E+00
  78.100 2.92901E-24 2.92901E-24 0.00000E+00 0.00000E+00 0.00000E+00
  78.200 6.38004E-25 6.38004E-25 0.00000E+00 0.00000E+00 0.00000E+00
  78.300 1.35476E-25 1.35476E-25 0.00000E+00 0.00000E+00 0.00000E+00
  78.400 2.80488E-26 2.80488E-26 0.00000E+00 0.00000E+00 0.00000E+00
  78.500 5.66125E-27 5.66125E-27 0.00000E+00 0.00000E+00 0.00000E+00
  78.600 1.11386E-27 1.11386E-27 0.00000E+00 0.00000E+00 0.00000E+00
  78.700 2.13625E-28 2.13625E-28 0.00000E+00 0.00000E+00 0.00000E+00
  78.800 3.99309E-29 3.99309E-29 0.00000E+00 0.00000E+00 0.00000E+00
  78.900 7.27597E-30 7.27597E-30 0.00000E+00 0.00000E+00 0.00000E+00
  79.000 1.29220E-30 1.29220E-30 0.00000E+00 0.00000E+00 0.00000E+00
  79.100 2.23671E-31 2.23671E-31 0.00000E+00 0.00000E+00 0.00000E+00
  79.200 3.77329E-32 3.77329E-32 0.00000E+00 0.00000E+00 0.00000E+00
  79.300 6.20282E-33 6.20282E-33 0.00000E+00 0.00000E+00 0.00000E+00
  79.400 9.93856E-34 9.93856E-34 0.00000E+00 0.00000E+00 0.00000E+00
  79.500 1.55187E-34 1.55187E-34 0.00000E+00 0.00000E+00 0.00000E+00
  79.600 2.36142E-35 2.36142E-35 0.00000E+00 0.00000E+00 0.00000E+00
  79.700 3.50162E-36 3.50162E-36 0.00000E+00 0.00000E+00 0.00000E+00
  79.800 5.05911E-37 5.05911E-37 0.00000E+00 0.00000E+00 0.00000E+00
  79.900 7.12368E-38 7.12368E-38 0.00000E+00 0.00000E+00 0.00000E+00
  80.000 9.77452E-39 9.77452E-39 0.00000E+00 0.00000E+00 0.00000E+00
  80.100 1.30687E-39 1.30687E-39 0.00000E+00 0.00000E+00 0.00000E+00
  80.200 1.70262E-40 1.70262E-40 0.00000E+00 0.00000E+00 0.00000E+00
  80.300 2.16108E-41 2.16108E-41 0.00000E+00 0.00000E+00 0.00000E+00
  80.400 2.67368E-42 2.67368E-42 0.00000E+00 0.00000E+00 0.00000E+00
  80.500 3.22299E-43 3.22299E-43 0.00000E+00 0.00000E+00 0.00000E+00
  80.600 3.78351E-44 3.78351E-44 0.00000E+00 0.00000E+00 0.00000E+00
  80.700 4.20390E-45 4.20390E-45 0.00000E+00 0.00000E+00 0.00000E+00
  80.800 0.00000E+00 0.00000E+00 0.00000E+00 0.00000E+00 0.00000E+00
  80.900 0.00000E+00 0.00000E+00 0.00000E+00 0.00000E+00 0.00000E+00
  81.000 0.00000E+00 0.00000E+00 0.00000E+00 0.00000E+00 0.00000E+00
  81.100 0.00000E+00 0.00000E+00 0.00000E+00 0.00000E+00 0.00000E+00
  81.200 0.00000E+00 0.00000E+00 0.00000E+00 0.00000E+00 0.00000E+00
  81.300 0.00000E+00 0.00000E+00 0.00000E+00 0.00000E+00 0.00000E+00
  81.400 0.00000E+00 0.00000E+00 0.00000E+00 0.00000E+00 0.00000E+00
  81.500 0.00000E+00 0.00000E+00 0.00000E+00 0.00000E+00 0.00000E+00
  81.600 0.00000E+00 0.00000E+00 0.00000E+00 0.00000E+00 0.00000E+00
  81.700 0.00000E+00 0.00000E+00 0.00000E+00 0.00000E+00 0.00000E+00
  81.800 0.00000E+00 0.00000E+00 0.00000E+00 0.00000E+00 0.00000E+00
  81.900 0.00000E+00 0.00000E+00 0.00000E+00 0.00000E+00 0.00000E+00
  82.000 0.00000E+00 0.00000E+00 0.00000E+00 0.00000E+00 0.00000E+00
