# n + 209Bi: deuteron DDX spectrum
# E-incident =   63.00000
# Angle      =  70.000
# # energies =   227
#  E-out    Total       Direct    Pre-equil.  Mult. preeq  Compound
   0.400 0.00000E+00 0.00000E+00 0.00000E+00 0.00000E+00 0.00000E+00
   0.500 0.00000E+00 0.00000E+00 0.00000E+00 0.00000E+00 0.00000E+00
   0.600 0.00000E+00 0.00000E+00 0.00000E+00 0.00000E+00 0.00000E+00
   0.700 1.82169E-44 0.00000E+00 1.82169E-44 0.00000E+00 0.00000E+00
   0.800 1.16482E-40 0.00000E+00 1.16482E-40 0.00000E+00 0.00000E+00
   0.900 1.62533E-37 0.00000E+00 1.62533E-37 0.00000E+00 0.00000E+00
   1.000 3.96251E-34 0.00000E+00 3.96251E-34 0.00000E+00 0.00000E+00
   1.100 7.61357E-32 0.00000E+00 7.61357E-32 0.00000E+00 0.00000E+00
   1.200 7.40308E-30 0.00000E+00 7.40308E-30 0.00000E+00 0.00000E+00
   1.300 4.16457E-28 0.00000E+00 4.16457E-28 0.00000E+00 0.00000E+00
   1.400 1.49674E-26 0.00000E+00 1.49674E-26 0.00000E+00 0.00000E+00
   1.500 3.71014E-25 0.00000E+00 3.71014E-25 0.00000E+00 0.00000E+00
   1.600 6.72613E-24 0.00000E+00 6.72613E-24 0.00000E+00 0.00000E+00
   1.700 9.34406E-23 0.00000E+00 9.34406E-23 0.00000E+00 0.00000E+00
   1.800 1.03268E-21 0.00000E+00 1.03268E-21 0.00000E+00 0.00000E+00
   1.900 9.36051E-21 0.00000E+00 9.36051E-21 0.00000E+00 0.00000E+00
   2.000 7.13371E-20 0.00000E+00 7.13371E-20 0.00000E+00 0.00000E+00
   2.200 2.67060E-18 0.00000E+00 2.67060E-18 0.00000E+00 0.00000E+00
   2.400 6.17149E-17 0.00000E+00 6.17149E-17 0.00000E+00 0.00000E+00
   2.600 9.67673E-16 0.00000E+00 9.67673E-16 0.00000E+00 0.00000E+00
   2.800 1.10519E-14 0.00000E+00 1.10519E-14 0.00000E+00 0.00000E+00
   3.000 3.75904E-12 0.00000E+00 9.70321E-14 0.00000E+00 3.66201E-12
   3.200 9.38663E-11 0.00000E+00 6.83003E-13 0.00000E+00 9.31833E-11
   3.400 7.52285E-10 0.00000E+00 3.98609E-12 0.00000E+00 7.48299E-10
   3.600 4.54492E-09 0.00000E+00 1.98104E-11 0.00000E+00 4.52511E-09
   3.800 3.61508E-08 0.00000E+00 8.57135E-11 0.00000E+00 3.60651E-08
   4.000 1.02170E-07 0.00000E+00 3.28716E-10 0.00000E+00 1.01841E-07
   4.500 3.09324E-07 0.00000E+00 6.12913E-09 0.00000E+00 3.03195E-07
   5.000 3.18786E-06 0.00000E+00 7.00886E-08 0.00000E+00 3.11777E-06
   5.500 1.20482E-05 0.00000E+00 5.53733E-07 0.00000E+00 1.14945E-05
   6.000 3.12821E-05 0.00000E+00 3.28202E-06 0.00000E+00 2.80001E-05
   6.500 1.34438E-04 0.00000E+00 1.54705E-05 0.00000E+00 1.18968E-04
   7.000 2.72383E-04 0.00000E+00 6.04549E-05 0.00000E+00 2.11928E-04
   7.500 6.64076E-04 0.00000E+00 2.01597E-04 0.00000E+00 4.62480E-04
   8.000 1.44499E-03 0.00000E+00 5.84255E-04 0.00000E+00 8.60730E-04
   8.500 2.66268E-03 0.00000E+00 1.48395E-03 0.00000E+00 1.17873E-03
   9.000 5.06600E-03 0.00000E+00 3.30345E-03 0.00000E+00 1.76255E-03
   9.500 8.48175E-03 0.00000E+00 6.43367E-03 0.00000E+00 2.04808E-03
  10.000 1.32592E-02 0.00000E+00 1.10328E-02 0.00000E+00 2.22635E-03
  10.500 1.91623E-02 0.00000E+00 1.69778E-02 0.00000E+00 2.18448E-03
  11.000 2.60441E-02 0.00000E+00 2.40150E-02 0.00000E+00 2.02903E-03
  11.500 3.35246E-02 0.00000E+00 3.18773E-02 0.00000E+00 1.64728E-03
  12.000 4.16715E-02 0.00000E+00 4.02844E-02 0.00000E+00 1.38714E-03
  12.500 5.00029E-02 0.00000E+00 4.89556E-02 0.00000E+00 1.04728E-03
  13.000 5.83701E-02 0.00000E+00 5.76183E-02 0.00000E+00 7.51763E-04
  13.500 6.66102E-02 0.00000E+00 6.60145E-02 0.00000E+00 5.95724E-04
  14.000 7.43326E-02 0.00000E+00 7.39512E-02 0.00000E+00 3.81435E-04
  14.500 8.16263E-02 0.00000E+00 8.13431E-02 0.00000E+00 2.83155E-04
  15.000 8.83905E-02 0.00000E+00 8.81879E-02 0.00000E+00 2.02599E-04
  15.500 9.46326E-02 0.00000E+00 9.45104E-02 0.00000E+00 1.22263E-04
  16.000 1.00427E-01 0.00000E+00 1.00335E-01 0.00000E+00 9.25707E-05
  16.500 1.05752E-01 0.00000E+00 1.05691E-01 0.00000E+00 6.09953E-05
  17.000 1.10654E-01 0.00000E+00 1.10615E-01 0.00000E+00 3.85161E-05
  17.500 1.15165E-01 0.00000E+00 1.15137E-01 0.00000E+00 2.82560E-05
  18.000 1.19288E-01 0.00000E+00 1.19271E-01 0.00000E+00 1.74925E-05
  18.500 1.23030E-01 0.00000E+00 1.23018E-01 0.00000E+00 1.16623E-05
  19.000 1.26385E-01 0.00000E+00 1.26376E-01 0.00000E+00 8.23318E-06
  19.500 1.29353E-01 0.00000E+00 1.29348E-01 0.00000E+00 5.06454E-06
  20.000 1.31955E-01 0.00000E+00 1.31951E-01 0.00000E+00 3.34768E-06
  21.000 1.36134E-01 0.00000E+00 1.36133E-01 0.00000E+00 1.48437E-06
  22.000 1.39094E-01 0.00000E+00 1.39093E-01 0.00000E+00 6.57059E-07
  23.000 1.40957E-01 0.00000E+00 1.40957E-01 0.00000E+00 2.81288E-07
  24.000 1.41781E-01 0.00000E+00 1.41780E-01 0.00000E+00 1.21013E-07
  25.000 1.41594E-01 0.00000E+00 1.41594E-01 0.00000E+00 5.06900E-08
  26.000 1.40490E-01 0.00000E+00 1.40490E-01 0.00000E+00 2.23215E-08
  27.000 1.38745E-01 0.00000E+00 1.38745E-01 0.00000E+00 9.13590E-09
  28.000 1.36482E-01 0.00000E+00 1.36482E-01 0.00000E+00 3.65588E-09
  29.000 1.33769E-01 0.00000E+00 1.33769E-01 0.00000E+00 1.56944E-09
  30.000 1.30658E-01 0.00000E+00 1.30658E-01 0.00000E+00 6.06243E-10
  31.000 1.27193E-01 0.00000E+00 1.27193E-01 0.00000E+00 2.36426E-10
  32.000 1.23420E-01 0.00000E+00 1.23420E-01 0.00000E+00 0.00000E+00
  33.000 1.19390E-01 0.00000E+00 1.19390E-01 0.00000E+00 0.00000E+00
  34.000 1.15162E-01 0.00000E+00 1.15162E-01 0.00000E+00 0.00000E+00
  35.000 1.10788E-01 0.00000E+00 1.10788E-01 0.00000E+00 0.00000E+00
  36.000 1.06306E-01 0.00000E+00 1.06306E-01 0.00000E+00 0.00000E+00
  37.000 1.01749E-01 0.00000E+00 1.01749E-01 0.00000E+00 0.00000E+00
  38.000 9.71432E-02 0.00000E+00 9.71432E-02 0.00000E+00 0.00000E+00
  39.000 9.25182E-02 0.00000E+00 9.25182E-02 0.00000E+00 0.00000E+00
  40.000 8.79052E-02 0.00000E+00 8.79052E-02 0.00000E+00 0.00000E+00
  42.000 7.88407E-02 0.00000E+00 7.88407E-02 0.00000E+00 0.00000E+00
  44.000 7.01632E-02 0.00000E+00 7.01632E-02 0.00000E+00 0.00000E+00
  46.000 6.20277E-02 0.00000E+00 6.20277E-02 0.00000E+00 0.00000E+00
  48.000 5.45443E-02 0.00000E+00 5.45443E-02 0.00000E+00 0.00000E+00
  50.000 4.77888E-02 0.00000E+00 4.77888E-02 0.00000E+00 0.00000E+00
  52.000 4.17908E-02 0.00000E+00 4.17908E-02 0.00000E+00 0.00000E+00
  54.000 3.65383E-02 0.00000E+00 3.65383E-02 0.00000E+00 0.00000E+00
  56.000 3.19884E-02 0.00000E+00 3.19884E-02 0.00000E+00 0.00000E+00
  56.100 3.07355E-02 2.11051E-04 3.05244E-02 0.00000E+00 0.00000E+00
  56.200 2.94478E-02 3.87415E-04 2.90604E-02 0.00000E+00 0.00000E+00
  56.300 2.82755E-02 6.79114E-04 2.75964E-02 0.00000E+00 0.00000E+00
  56.400 2.72701E-02 1.13779E-03 2.61324E-02 0.00000E+00 0.00000E+00
  56.500 2.64919E-02 1.82358E-03 2.46684E-02 0.00000E+00 0.00000E+00
  56.600 2.60034E-02 2.79905E-03 2.32044E-02 0.00000E+00 0.00000E+00
  56.700 2.58600E-02 4.11969E-03 2.17403E-02 0.00000E+00 0.00000E+00
  56.800 2.60987E-02 5.82238E-03 2.02763E-02 0.00000E+00 0.00000E+00
  56.900 2.67276E-02 7.91528E-03 1.88123E-02 0.00000E+00 0.00000E+00
  57.000 2.77193E-02 1.03710E-02 1.73483E-02 0.00000E+00 0.00000E+00
  57.100 2.90125E-02 1.31282E-02 1.58843E-02 0.00000E+00 0.00000E+00
  57.200 3.05216E-02 1.61014E-02 1.44203E-02 0.00000E+00 0.00000E+00
  57.300 3.21549E-02 1.91987E-02 1.29563E-02 0.00000E+00 0.00000E+00
  57.400 3.38365E-02 2.23443E-02 1.14922E-02 0.00000E+00 0.00000E+00
  57.500 3.55251E-02 2.54968E-02 1.00282E-02 0.00000E+00 0.00000E+00
  57.600 3.72221E-02 2.86579E-02 8.56424E-03 0.00000E+00 0.00000E+00
  57.700 3.89626E-02 3.18624E-02 7.10020E-03 0.00000E+00 0.00000E+00
  57.800 4.07849E-02 3.51487E-02 5.63621E-03 0.00000E+00 0.00000E+00
  57.900 4.26870E-02 3.85148E-02 4.17216E-03 0.00000E+00 0.00000E+00
  58.000 4.45784E-02 4.18702E-02 2.70817E-03 0.00000E+00 0.00000E+00
  58.100 4.75790E-02 4.50062E-02 2.57276E-03 0.00000E+00 0.00000E+00
  58.200 5.00360E-02 4.75987E-02 2.43735E-03 0.00000E+00 0.00000E+00
  58.300 5.15559E-02 4.92540E-02 2.30195E-03 0.00000E+00 0.00000E+00
  58.400 5.17600E-02 4.95935E-02 2.16653E-03 0.00000E+00 0.00000E+00
  58.500 5.03829E-02 4.83518E-02 2.03113E-03 0.00000E+00 0.00000E+00
  58.600 4.73556E-02 4.54599E-02 1.89572E-03 0.00000E+00 0.00000E+00
  58.700 4.28427E-02 4.10824E-02 1.76031E-03 0.00000E+00 0.00000E+00
  58.800 3.72216E-02 3.55967E-02 1.62490E-03 0.00000E+00 0.00000E+00
  58.900 3.10061E-02 2.95166E-02 1.48949E-03 0.00000E+00 0.00000E+00
  59.000 2.47439E-02 2.33898E-02 1.35409E-03 0.00000E+00 0.00000E+00
  59.100 1.89143E-02 1.76956E-02 1.21868E-03 0.00000E+00 0.00000E+00
  59.200 1.38571E-02 1.27738E-02 1.08327E-03 0.00000E+00 0.00000E+00
  59.300 9.74646E-03 8.79860E-03 9.47861E-04 0.00000E+00 0.00000E+00
  59.400 6.60373E-03 5.79128E-03 8.12449E-04 0.00000E+00 0.00000E+00
  59.500 4.34104E-03 3.66400E-03 6.77043E-04 0.00000E+00 0.00000E+00
  59.600 2.81317E-03 2.27153E-03 5.41636E-04 0.00000E+00 0.00000E+00
  59.700 1.86582E-03 1.45960E-03 4.06225E-04 0.00000E+00 0.00000E+00
  59.800 1.36978E-03 1.09896E-03 2.70818E-04 0.00000E+00 0.00000E+00
  59.900 1.23847E-03 1.10306E-03 1.35406E-04 0.00000E+00 0.00000E+00
  60.000 1.43134E-03 1.43134E-03 0.00000E+00 0.00000E+00 0.00000E+00
  60.100 2.08111E-03 2.08111E-03 0.00000E+00 0.00000E+00 0.00000E+00
  60.200 3.07165E-03 3.07165E-03 0.00000E+00 0.00000E+00 0.00000E+00
  60.300 4.42316E-03 4.42316E-03 0.00000E+00 0.00000E+00 0.00000E+00
  60.400 6.13433E-03 6.13433E-03 0.00000E+00 0.00000E+00 0.00000E+00
  60.500 8.16128E-03 8.16128E-03 0.00000E+00 0.00000E+00 0.00000E+00
  60.600 1.04042E-02 1.04042E-02 0.00000E+00 0.00000E+00 0.00000E+00
  60.700 1.27049E-02 1.27049E-02 0.00000E+00 0.00000E+00 0.00000E+00
  60.800 1.48594E-02 1.48594E-02 0.00000E+00 0.00000E+00 0.00000E+00
  60.900 1.66451E-02 1.66451E-02 0.00000E+00 0.00000E+00 0.00000E+00
  61.000 1.78576E-02 1.78576E-02 0.00000E+00 0.00000E+00 0.00000E+00
  61.100 1.83489E-02 1.83489E-02 0.00000E+00 0.00000E+00 0.00000E+00
  61.200 1.80572E-02 1.80572E-02 0.00000E+00 0.00000E+00 0.00000E+00
  61.300 1.70192E-02 1.70192E-02 0.00000E+00 0.00000E+00 0.00000E+00
  61.400 1.53631E-02 1.53631E-02 0.00000E+00 0.00000E+00 0.00000E+00
  61.500 1.32822E-02 1.32822E-02 0.00000E+00 0.00000E+00 0.00000E+00
  61.600 1.09980E-02 1.09980E-02 0.00000E+00 0.00000E+00 0.00000E+00
  61.700 8.72174E-03 8.72174E-03 0.00000E+00 0.00000E+00 0.00000E+00
  61.800 6.62442E-03 6.62442E-03 0.00000E+00 0.00000E+00 0.00000E+00
  61.900 4.81880E-03 4.81880E-03 0.00000E+00 0.00000E+00 0.00000E+00
  62.000 3.35726E-03 3.35726E-03 0.00000E+00 0.00000E+00 0.00000E+00
  62.100 2.24018E-03 2.24018E-03 0.00000E+00 0.00000E+00 0.00000E+00
  62.200 1.43161E-03 1.43161E-03 0.00000E+00 0.00000E+00 0.00000E+00
  62.300 8.76241E-04 8.76241E-04 0.00000E+00 0.00000E+00 0.00000E+00
  62.400 5.13648E-04 5.13648E-04 0.00000E+00 0.00000E+00 0.00000E+00
  62.500 2.88381E-04 2.88381E-04 0.00000E+00 0.00000E+00 0.00000E+00
  62.600 1.55067E-04 1.55067E-04 0.00000E+00 0.00000E+00 0.00000E+00
  62.700 7.98568E-05 7.98568E-05 0.00000E+00 0.00000E+00 0.00000E+00
  62.800 3.93882E-05 3.93882E-05 0.00000E+00 0.00000E+00 0.00000E+00
  62.900 1.86063E-05 1.86063E-05 0.00000E+00 0.00000E+00 0.00000E+00
  63.000 8.41812E-06 8.41812E-06 0.00000E+00 0.00000E+00 0.00000E+00
  63.100 3.64773E-06 3.64773E-06 0.00000E+00 0.00000E+00 0.00000E+00
  63.200 1.51379E-06 1.51379E-06 0.00000E+00 0.00000E+00 0.00000E+00
  63.300 6.01694E-07 6.01694E-07 0.00000E+00 0.00000E+00 0.00000E+00
  63.400 2.29044E-07 2.29044E-07 0.00000E+00 0.00000E+00 0.00000E+00
  63.500 8.35085E-08 8.35085E-08 0.00000E+00 0.00000E+00 0.00000E+00
  63.600 2.91603E-08 2.91603E-08 0.00000E+00 0.00000E+00 0.00000E+00
  63.700 9.75186E-09 9.75186E-09 0.00000E+00 0.00000E+00 0.00000E+00
  63.800 3.12357E-09 3.12357E-09 0.00000E+00 0.00000E+00 0.00000E+00
  63.900 9.58179E-10 9.58179E-10 0.00000E+00 0.00000E+00 0.00000E+00
  64.000 2.81522E-10 2.81522E-10 0.00000E+00 0.00000E+00 0.00000E+00
  64.100 7.92189E-11 7.92189E-11 0.00000E+00 0.00000E+00 0.00000E+00
  64.200 2.13500E-11 2.13500E-11 0.00000E+00 0.00000E+00 0.00000E+00
  64.300 5.51025E-12 5.51025E-12 0.00000E+00 0.00000E+00 0.00000E+00
  64.400 1.36220E-12 1.36220E-12 0.00000E+00 0.00000E+00 0.00000E+00
  64.500 3.22523E-13 3.22523E-13 0.00000E+00 0.00000E+00 0.00000E+00
  64.600 7.31363E-14 7.31363E-14 0.00000E+00 0.00000E+00 0.00000E+00
  64.700 1.58839E-14 1.58839E-14 0.00000E+00 0.00000E+00 0.00000E+00
  64.800 3.30352E-15 3.30352E-15 0.00000E+00 0.00000E+00 0.00000E+00
  64.900 6.58116E-16 6.58116E-16 0.00000E+00 0.00000E+00 0.00000E+00
  65.000 1.25567E-16 1.25567E-16 0.00000E+00 0.00000E+00 0.00000E+00
  65.100 2.29458E-17 2.29458E-17 0.00000E+00 0.00000E+00 0.00000E+00
  65.200 4.01588E-18 4.01588E-18 0.00000E+00 0.00000E+00 0.00000E+00
  65.300 6.73056E-19 6.73056E-19 0.00000E+00 0.00000E+00 0.00000E+00
  65.400 1.08051E-19 1.08051E-19 0.00000E+00 0.00000E+00 0.00000E+00
  65.500 1.66134E-20 1.66134E-20 0.00000E+00 0.00000E+00 0.00000E+00
  65.600 2.44647E-21 2.44647E-21 0.00000E+00 0.00000E+00 0.00000E+00
  65.700 3.45043E-22 3.45043E-22 0.00000E+00 0.00000E+00 0.00000E+00
  65.800 4.66005E-23 4.66005E-23 0.00000E+00 0.00000E+00 0.00000E+00
  65.900 6.02869E-24 6.02869E-24 0.00000E+00 0.00000E+00 0.00000E+00
  66.000 7.46978E-25 7.46978E-25 0.00000E+00 0.00000E+00 0.00000E+00
  66.100 8.86429E-26 8.86429E-26 0.00000E+00 0.00000E+00 0.00000E+00
  66.200 1.00747E-26 1.00747E-26 0.00000E+00 0.00000E+00 0.00000E+00
  66.300 1.09647E-27 1.09647E-27 0.00000E+00 0.00000E+00 0.00000E+00
  66.400 1.14310E-28 1.14310E-28 0.00000E+00 0.00000E+00 0.00000E+00
  66.500 1.14136E-29 1.14136E-29 0.00000E+00 0.00000E+00 0.00000E+00
  66.600 1.09148E-30 1.09148E-30 0.00000E+00 0.00000E+00 0.00000E+00
  66.700 9.99666E-32 9.99666E-32 0.00000E+00 0.00000E+00 0.00000E+00
  66.800 8.76737E-33 8.76737E-33 0.00000E+00 0.00000E+00 0.00000E+00
  66.900 7.36567E-34 7.36567E-34 0.00000E+00 0.00000E+00 0.00000E+00
  67.000 5.92659E-35 5.92659E-35 0.00000E+00 0.00000E+00 0.00000E+00
  67.100 4.56724E-36 4.56724E-36 0.00000E+00 0.00000E+00 0.00000E+00
  67.200 3.37092E-37 3.37092E-37 0.00000E+00 0.00000E+00 0.00000E+00
  67.300 2.38236E-38 2.38236E-38 0.00000E+00 0.00000E+00 0.00000E+00
  67.400 1.61290E-39 1.61290E-39 0.00000E+00 0.00000E+00 0.00000E+00
  67.500 1.04582E-40 1.04582E-40 0.00000E+00 0.00000E+00 0.00000E+00
  67.600 6.49502E-42 6.49502E-42 0.00000E+00 0.00000E+00 0.00000E+00
  67.700 3.86758E-43 3.86758E-43 0.00000E+00 0.00000E+00 0.00000E+00
  67.800 2.24208E-44 2.24208E-44 0.00000E+00 0.00000E+00 0.00000E+00
  67.900 1.40130E-45 1.40130E-45 0.00000E+00 0.00000E+00 0.00000E+00
  68.000 0.00000E+00 0.00000E+00 0.00000E+00 0.00000E+00 0.00000E+00
  68.100 0.00000E+00 0.00000E+00 0.00000E+00 0.00000E+00 0.00000E+00
  68.200 0.00000E+00 0.00000E+00 0.00000E+00 0.00000E+00 0.00000E+00
  68.300 0.00000E+00 0.00000E+00 0.00000E+00 0.00000E+00 0.00000E+00
  68.400 0.00000E+00 0.00000E+00 0.00000E+00 0.00000E+00 0.00000E+00
  68.500 0.00000E+00 0.00000E+00 0.00000E+00 0.00000E+00 0.00000E+00
  68.600 0.00000E+00 0.00000E+00 0.00000E+00 0.00000E+00 0.00000E+00
  68.700 0.00000E+00 0.00000E+00 0.00000E+00 0.00000E+00 0.00000E+00
  68.800 0.00000E+00 0.00000E+00 0.00000E+00 0.00000E+00 0.00000E+00
  68.900 0.00000E+00 0.00000E+00 0.00000E+00 0.00000E+00 0.00000E+00
  69.000 0.00000E+00 0.00000E+00 0.00000E+00 0.00000E+00 0.00000E+00
  69.100 0.00000E+00 0.00000E+00 0.00000E+00 0.00000E+00 0.00000E+00
  69.200 0.00000E+00 0.00000E+00 0.00000E+00 0.00000E+00 0.00000E+00
  69.300 0.00000E+00 0.00000E+00 0.00000E+00 0.00000E+00 0.00000E+00
  69.400 0.00000E+00 0.00000E+00 0.00000E+00 0.00000E+00 0.00000E+00
  69.500 0.00000E+00 0.00000E+00 0.00000E+00 0.00000E+00 0.00000E+00
  69.600 0.00000E+00 0.00000E+00 0.00000E+00 0.00000E+00 0.00000E+00
  69.700 0.00000E+00 0.00000E+00 0.00000E+00 0.00000E+00 0.00000E+00
  69.800 0.00000E+00 0.00000E+00 0.00000E+00 0.00000E+00 0.00000E+00
  69.900 0.00000E+00 0.00000E+00 0.00000E+00 0.00000E+00 0.00000E+00
  70.000 0.00000E+00 0.00000E+00 0.00000E+00 0.00000E+00 0.00000E+00
