# n + 209Bi: deuteron DDX spectrum
# E-incident =   63.00000
# Angle      = 110.000
# # energies =   227
#  E-out    Total       Direct    Pre-equil.  Mult. preeq  Compound
   0.400 0.00000E+00 0.00000E+00 0.00000E+00 0.00000E+00 0.00000E+00
   0.500 0.00000E+00 0.00000E+00 0.00000E+00 0.00000E+00 0.00000E+00
   0.600 0.00000E+00 0.00000E+00 0.00000E+00 0.00000E+00 0.00000E+00
   0.700 1.40130E-44 0.00000E+00 1.40130E-44 0.00000E+00 0.00000E+00
   0.800 8.63382E-41 0.00000E+00 8.63382E-41 0.00000E+00 0.00000E+00
   0.900 1.20135E-37 0.00000E+00 1.20135E-37 0.00000E+00 0.00000E+00
   1.000 2.92064E-34 0.00000E+00 2.92064E-34 0.00000E+00 0.00000E+00
   1.100 5.59595E-32 0.00000E+00 5.59595E-32 0.00000E+00 0.00000E+00
   1.200 5.42595E-30 0.00000E+00 5.42595E-30 0.00000E+00 0.00000E+00
   1.300 3.04376E-28 0.00000E+00 3.04376E-28 0.00000E+00 0.00000E+00
   1.400 1.09085E-26 0.00000E+00 1.09085E-26 0.00000E+00 0.00000E+00
   1.500 2.69639E-25 0.00000E+00 2.69639E-25 0.00000E+00 0.00000E+00
   1.600 4.87453E-24 0.00000E+00 4.87453E-24 0.00000E+00 0.00000E+00
   1.700 6.75269E-23 0.00000E+00 6.75269E-23 0.00000E+00 0.00000E+00
   1.800 7.44184E-22 0.00000E+00 7.44184E-22 0.00000E+00 0.00000E+00
   1.900 6.72646E-21 0.00000E+00 6.72646E-21 0.00000E+00 0.00000E+00
   2.000 5.11181E-20 0.00000E+00 5.11181E-20 0.00000E+00 0.00000E+00
   2.200 1.90287E-18 0.00000E+00 1.90287E-18 0.00000E+00 0.00000E+00
   2.400 4.37247E-17 0.00000E+00 4.37247E-17 0.00000E+00 0.00000E+00
   2.600 6.81710E-16 0.00000E+00 6.81710E-16 0.00000E+00 0.00000E+00
   2.800 7.74174E-15 0.00000E+00 7.74174E-15 0.00000E+00 0.00000E+00
   3.000 3.72960E-12 0.00000E+00 6.75841E-14 0.00000E+00 3.66201E-12
   3.200 9.36563E-11 0.00000E+00 4.73015E-13 0.00000E+00 9.31833E-11
   3.400 7.51044E-10 0.00000E+00 2.74486E-12 0.00000E+00 7.48299E-10
   3.600 4.53868E-09 0.00000E+00 1.35638E-11 0.00000E+00 4.52511E-09
   3.800 3.61234E-08 0.00000E+00 5.83511E-11 0.00000E+00 3.60651E-08
   4.000 1.02064E-07 0.00000E+00 2.22499E-10 0.00000E+00 1.01841E-07
   4.500 3.07284E-07 0.00000E+00 4.08938E-09 0.00000E+00 3.03195E-07
   5.000 3.16386E-06 0.00000E+00 4.60925E-08 0.00000E+00 3.11777E-06
   5.500 1.18534E-05 0.00000E+00 3.58904E-07 0.00000E+00 1.14945E-05
   6.000 3.00965E-05 0.00000E+00 2.09645E-06 0.00000E+00 2.80001E-05
   6.500 1.28706E-04 0.00000E+00 9.73826E-06 0.00000E+00 1.18968E-04
   7.000 2.49426E-04 0.00000E+00 3.74980E-05 0.00000E+00 2.11928E-04
   7.500 5.85684E-04 0.00000E+00 1.23204E-04 0.00000E+00 4.62480E-04
   8.000 1.21251E-03 0.00000E+00 3.51781E-04 0.00000E+00 8.60730E-04
   8.500 2.05893E-03 0.00000E+00 8.80194E-04 0.00000E+00 1.17873E-03
   9.000 3.69264E-03 0.00000E+00 1.93009E-03 0.00000E+00 1.76255E-03
   9.500 5.75043E-03 0.00000E+00 3.70234E-03 0.00000E+00 2.04808E-03
  10.000 8.47908E-03 0.00000E+00 6.25273E-03 0.00000E+00 2.22635E-03
  10.500 1.16595E-02 0.00000E+00 9.47506E-03 0.00000E+00 2.18448E-03
  11.000 1.52254E-02 0.00000E+00 1.31964E-02 0.00000E+00 2.02903E-03
  11.500 1.88928E-02 0.00000E+00 1.72455E-02 0.00000E+00 1.64728E-03
  12.000 2.28408E-02 0.00000E+00 2.14537E-02 0.00000E+00 1.38714E-03
  12.500 2.67089E-02 0.00000E+00 2.56617E-02 0.00000E+00 1.04728E-03
  13.000 3.04756E-02 0.00000E+00 2.97238E-02 0.00000E+00 7.51763E-04
  13.500 3.41068E-02 0.00000E+00 3.35110E-02 0.00000E+00 5.95724E-04
  14.000 3.73165E-02 0.00000E+00 3.69350E-02 0.00000E+00 3.81435E-04
  14.500 4.02498E-02 0.00000E+00 3.99667E-02 0.00000E+00 2.83155E-04
  15.000 4.28218E-02 0.00000E+00 4.26192E-02 0.00000E+00 2.02599E-04
  15.500 4.50412E-02 0.00000E+00 4.49189E-02 0.00000E+00 1.22263E-04
  16.000 4.69832E-02 0.00000E+00 4.68906E-02 0.00000E+00 9.25707E-05
  16.500 4.86219E-02 0.00000E+00 4.85609E-02 0.00000E+00 6.09953E-05
  17.000 4.99965E-02 0.00000E+00 4.99580E-02 0.00000E+00 3.85161E-05
  17.500 5.11341E-02 0.00000E+00 5.11058E-02 0.00000E+00 2.82560E-05
  18.000 5.20385E-02 0.00000E+00 5.20210E-02 0.00000E+00 1.74925E-05
  18.500 5.27253E-02 0.00000E+00 5.27136E-02 0.00000E+00 1.16623E-05
  19.000 5.32000E-02 0.00000E+00 5.31918E-02 0.00000E+00 8.23318E-06
  19.500 5.34714E-02 0.00000E+00 5.34663E-02 0.00000E+00 5.06454E-06
  20.000 5.35566E-02 0.00000E+00 5.35533E-02 0.00000E+00 3.34768E-06
  21.000 5.32328E-02 0.00000E+00 5.32313E-02 0.00000E+00 1.48437E-06
  22.000 5.23558E-02 0.00000E+00 5.23551E-02 0.00000E+00 6.57059E-07
  23.000 5.10258E-02 0.00000E+00 5.10255E-02 0.00000E+00 2.81288E-07
  24.000 4.93103E-02 0.00000E+00 4.93102E-02 0.00000E+00 1.21013E-07
  25.000 4.72646E-02 0.00000E+00 4.72646E-02 0.00000E+00 5.06900E-08
  26.000 4.49607E-02 0.00000E+00 4.49607E-02 0.00000E+00 2.23215E-08
  27.000 4.25214E-02 0.00000E+00 4.25214E-02 0.00000E+00 9.13590E-09
  28.000 4.00079E-02 0.00000E+00 4.00079E-02 0.00000E+00 3.65588E-09
  29.000 3.74595E-02 0.00000E+00 3.74595E-02 0.00000E+00 1.56944E-09
  30.000 3.49063E-02 0.00000E+00 3.49063E-02 0.00000E+00 6.06243E-10
  31.000 3.23738E-02 0.00000E+00 3.23738E-02 0.00000E+00 2.36426E-10
  32.000 2.98849E-02 0.00000E+00 2.98849E-02 0.00000E+00 0.00000E+00
  33.000 2.74614E-02 0.00000E+00 2.74614E-02 0.00000E+00 0.00000E+00
  34.000 2.51227E-02 0.00000E+00 2.51227E-02 0.00000E+00 0.00000E+00
  35.000 2.28845E-02 0.00000E+00 2.28845E-02 0.00000E+00 0.00000E+00
  36.000 2.07569E-02 0.00000E+00 2.07569E-02 0.00000E+00 0.00000E+00
  37.000 1.87465E-02 0.00000E+00 1.87465E-02 0.00000E+00 0.00000E+00
  38.000 1.68573E-02 0.00000E+00 1.68573E-02 0.00000E+00 0.00000E+00
  39.000 1.50923E-02 0.00000E+00 1.50923E-02 0.00000E+00 0.00000E+00
  40.000 1.34535E-02 0.00000E+00 1.34535E-02 0.00000E+00 0.00000E+00
  42.000 1.05546E-02 0.00000E+00 1.05546E-02 0.00000E+00 0.00000E+00
  44.000 8.14375E-03 0.00000E+00 8.14375E-03 0.00000E+00 0.00000E+00
  46.000 6.18309E-03 0.00000E+00 6.18309E-03 0.00000E+00 0.00000E+00
  48.000 4.62246E-03 0.00000E+00 4.62246E-03 0.00000E+00 0.00000E+00
  50.000 3.40612E-03 0.00000E+00 3.40612E-03 0.00000E+00 0.00000E+00
  52.000 2.47643E-03 0.00000E+00 2.47643E-03 0.00000E+00 0.00000E+00
  54.000 1.77827E-03 0.00000E+00 1.77827E-03 0.00000E+00 0.00000E+00
  56.000 1.26216E-03 0.00000E+00 1.26216E-03 0.00000E+00 0.00000E+00
  56.100 1.21062E-03 7.30024E-06 1.20332E-03 0.00000E+00 0.00000E+00
  56.200 1.15789E-03 1.34007E-05 1.14448E-03 0.00000E+00 0.00000E+00
  56.300 1.10914E-03 2.34905E-05 1.08565E-03 0.00000E+00 0.00000E+00
  56.400 1.06617E-03 3.93561E-05 1.02681E-03 0.00000E+00 0.00000E+00
  56.500 1.03106E-03 6.30777E-05 9.67979E-04 0.00000E+00 0.00000E+00
  56.600 1.00596E-03 9.68190E-05 9.09145E-04 0.00000E+00 0.00000E+00
  56.700 9.92808E-04 1.42500E-04 8.50308E-04 0.00000E+00 0.00000E+00
  56.800 9.92869E-04 2.01396E-04 7.91474E-04 0.00000E+00 0.00000E+00
  56.900 1.00643E-03 2.73789E-04 7.32637E-04 0.00000E+00 0.00000E+00
  57.000 1.03253E-03 3.58732E-04 6.73802E-04 0.00000E+00 0.00000E+00
  57.100 1.06907E-03 4.54103E-04 6.14968E-04 0.00000E+00 0.00000E+00
  57.200 1.11308E-03 5.56945E-04 5.56131E-04 0.00000E+00 0.00000E+00
  57.300 1.16138E-03 6.64081E-04 4.97297E-04 0.00000E+00 0.00000E+00
  57.400 1.21135E-03 7.72888E-04 4.38460E-04 0.00000E+00 0.00000E+00
  57.500 1.26156E-03 8.81934E-04 3.79626E-04 0.00000E+00 0.00000E+00
  57.600 1.31207E-03 9.91274E-04 3.20791E-04 0.00000E+00 0.00000E+00
  57.700 1.36407E-03 1.10212E-03 2.61955E-04 0.00000E+00 0.00000E+00
  57.800 1.41891E-03 1.21579E-03 2.03120E-04 0.00000E+00 0.00000E+00
  57.900 1.47651E-03 1.33222E-03 1.44284E-04 0.00000E+00 0.00000E+00
  58.000 1.53374E-03 1.44829E-03 8.54491E-05 0.00000E+00 0.00000E+00
  58.100 1.63794E-03 1.55676E-03 8.11767E-05 0.00000E+00 0.00000E+00
  58.200 1.72334E-03 1.64644E-03 7.69041E-05 0.00000E+00 0.00000E+00
  58.300 1.77632E-03 1.70369E-03 7.26317E-05 0.00000E+00 0.00000E+00
  58.400 1.78379E-03 1.71543E-03 6.83592E-05 0.00000E+00 0.00000E+00
  58.500 1.73657E-03 1.67249E-03 6.40868E-05 0.00000E+00 0.00000E+00
  58.600 1.63227E-03 1.57245E-03 5.98144E-05 0.00000E+00 0.00000E+00
  58.700 1.47658E-03 1.42104E-03 5.55419E-05 0.00000E+00 0.00000E+00
  58.800 1.28256E-03 1.23129E-03 5.12695E-05 0.00000E+00 0.00000E+00
  58.900 1.06797E-03 1.02098E-03 4.69969E-05 0.00000E+00 0.00000E+00
  59.000 8.51778E-04 8.09053E-04 4.27245E-05 0.00000E+00 0.00000E+00
  59.100 6.50541E-04 6.12089E-04 3.84521E-05 0.00000E+00 0.00000E+00
  59.200 4.76025E-04 4.41845E-04 3.41796E-05 0.00000E+00 0.00000E+00
  59.300 3.34250E-04 3.04343E-04 2.99072E-05 0.00000E+00 0.00000E+00
  59.400 2.25955E-04 2.00320E-04 2.56347E-05 0.00000E+00 0.00000E+00
  59.500 1.48100E-04 1.26738E-04 2.13623E-05 0.00000E+00 0.00000E+00
  59.600 9.56620E-05 7.85722E-05 1.70899E-05 0.00000E+00 0.00000E+00
  59.700 6.33047E-05 5.04874E-05 1.28173E-05 0.00000E+00 0.00000E+00
  59.800 4.65579E-05 3.80130E-05 8.54494E-06 0.00000E+00 0.00000E+00
  59.900 4.24273E-05 3.81549E-05 4.27239E-06 0.00000E+00 0.00000E+00
  60.000 4.95100E-05 4.95100E-05 0.00000E+00 0.00000E+00 0.00000E+00
  60.100 7.19854E-05 7.19854E-05 0.00000E+00 0.00000E+00 0.00000E+00
  60.200 1.06248E-04 1.06248E-04 0.00000E+00 0.00000E+00 0.00000E+00
  60.300 1.52997E-04 1.52997E-04 0.00000E+00 0.00000E+00 0.00000E+00
  60.400 2.12186E-04 2.12186E-04 0.00000E+00 0.00000E+00 0.00000E+00
  60.500 2.82298E-04 2.82298E-04 0.00000E+00 0.00000E+00 0.00000E+00
  60.600 3.59880E-04 3.59880E-04 0.00000E+00 0.00000E+00 0.00000E+00
  60.700 4.39462E-04 4.39462E-04 0.00000E+00 0.00000E+00 0.00000E+00
  60.800 5.13984E-04 5.13984E-04 0.00000E+00 0.00000E+00 0.00000E+00
  60.900 5.75752E-04 5.75752E-04 0.00000E+00 0.00000E+00 0.00000E+00
  61.000 6.17692E-04 6.17692E-04 0.00000E+00 0.00000E+00 0.00000E+00
  61.100 6.34688E-04 6.34688E-04 0.00000E+00 0.00000E+00 0.00000E+00
  61.200 6.24596E-04 6.24596E-04 0.00000E+00 0.00000E+00 0.00000E+00
  61.300 5.88693E-04 5.88693E-04 0.00000E+00 0.00000E+00 0.00000E+00
  61.400 5.31408E-04 5.31408E-04 0.00000E+00 0.00000E+00 0.00000E+00
  61.500 4.59431E-04 4.59431E-04 0.00000E+00 0.00000E+00 0.00000E+00
  61.600 3.80420E-04 3.80420E-04 0.00000E+00 0.00000E+00 0.00000E+00
  61.700 3.01685E-04 3.01685E-04 0.00000E+00 0.00000E+00 0.00000E+00
  61.800 2.29138E-04 2.29138E-04 0.00000E+00 0.00000E+00 0.00000E+00
  61.900 1.66682E-04 1.66682E-04 0.00000E+00 0.00000E+00 0.00000E+00
  62.000 1.16127E-04 1.16127E-04 0.00000E+00 0.00000E+00 0.00000E+00
  62.100 7.74877E-05 7.74877E-05 0.00000E+00 0.00000E+00 0.00000E+00
  62.200 4.95192E-05 4.95192E-05 0.00000E+00 0.00000E+00 0.00000E+00
  62.300 3.03091E-05 3.03091E-05 0.00000E+00 0.00000E+00 0.00000E+00
  62.400 1.77670E-05 1.77670E-05 0.00000E+00 0.00000E+00 0.00000E+00
  62.500 9.97508E-06 9.97508E-06 0.00000E+00 0.00000E+00 0.00000E+00
  62.600 5.36376E-06 5.36376E-06 0.00000E+00 0.00000E+00 0.00000E+00
  62.700 2.76224E-06 2.76224E-06 0.00000E+00 0.00000E+00 0.00000E+00
  62.800 1.36244E-06 1.36244E-06 0.00000E+00 0.00000E+00 0.00000E+00
  62.900 6.43589E-07 6.43589E-07 0.00000E+00 0.00000E+00 0.00000E+00
  63.000 2.91182E-07 2.91182E-07 0.00000E+00 0.00000E+00 0.00000E+00
  63.100 1.26175E-07 1.26175E-07 0.00000E+00 0.00000E+00 0.00000E+00
  63.200 5.23620E-08 5.23620E-08 0.00000E+00 0.00000E+00 0.00000E+00
  63.300 2.08126E-08 2.08126E-08 0.00000E+00 0.00000E+00 0.00000E+00
  63.400 7.92263E-09 7.92263E-09 0.00000E+00 0.00000E+00 0.00000E+00
  63.500 2.88855E-09 2.88855E-09 0.00000E+00 0.00000E+00 0.00000E+00
  63.600 1.00865E-09 1.00865E-09 0.00000E+00 0.00000E+00 0.00000E+00
  63.700 3.37316E-10 3.37316E-10 0.00000E+00 0.00000E+00 0.00000E+00
  63.800 1.08044E-10 1.08044E-10 0.00000E+00 0.00000E+00 0.00000E+00
  63.900 3.31433E-11 3.31433E-11 0.00000E+00 0.00000E+00 0.00000E+00
  64.000 9.73784E-12 9.73784E-12 0.00000E+00 0.00000E+00 0.00000E+00
  64.100 2.74018E-12 2.74018E-12 0.00000E+00 0.00000E+00 0.00000E+00
  64.200 7.38496E-13 7.38496E-13 0.00000E+00 0.00000E+00 0.00000E+00
  64.300 1.90599E-13 1.90599E-13 0.00000E+00 0.00000E+00 0.00000E+00
  64.400 4.71184E-14 4.71184E-14 0.00000E+00 0.00000E+00 0.00000E+00
  64.500 1.11561E-14 1.11561E-14 0.00000E+00 0.00000E+00 0.00000E+00
  64.600 2.52978E-15 2.52978E-15 0.00000E+00 0.00000E+00 0.00000E+00
  64.700 5.49422E-16 5.49422E-16 0.00000E+00 0.00000E+00 0.00000E+00
  64.800 1.14269E-16 1.14269E-16 0.00000E+00 0.00000E+00 0.00000E+00
  64.900 2.27642E-17 2.27642E-17 0.00000E+00 0.00000E+00 0.00000E+00
  65.000 4.34336E-18 4.34336E-18 0.00000E+00 0.00000E+00 0.00000E+00
  65.100 7.93693E-19 7.93693E-19 0.00000E+00 0.00000E+00 0.00000E+00
  65.200 1.38909E-19 1.38909E-19 0.00000E+00 0.00000E+00 0.00000E+00
  65.300 2.32810E-20 2.32810E-20 0.00000E+00 0.00000E+00 0.00000E+00
  65.400 3.73747E-21 3.73747E-21 0.00000E+00 0.00000E+00 0.00000E+00
  65.500 5.74657E-22 5.74657E-22 0.00000E+00 0.00000E+00 0.00000E+00
  65.600 8.46232E-23 8.46232E-23 0.00000E+00 0.00000E+00 0.00000E+00
  65.700 1.19350E-23 1.19350E-23 0.00000E+00 0.00000E+00 0.00000E+00
  65.800 1.61191E-24 1.61191E-24 0.00000E+00 0.00000E+00 0.00000E+00
  65.900 2.08532E-25 2.08532E-25 0.00000E+00 0.00000E+00 0.00000E+00
  66.000 2.58379E-26 2.58379E-26 0.00000E+00 0.00000E+00 0.00000E+00
  66.100 3.06615E-27 3.06615E-27 0.00000E+00 0.00000E+00 0.00000E+00
  66.200 3.48482E-28 3.48482E-28 0.00000E+00 0.00000E+00 0.00000E+00
  66.300 3.79268E-29 3.79268E-29 0.00000E+00 0.00000E+00 0.00000E+00
  66.400 3.95397E-30 3.95397E-30 0.00000E+00 0.00000E+00 0.00000E+00
  66.500 3.94796E-31 3.94796E-31 0.00000E+00 0.00000E+00 0.00000E+00
  66.600 3.77541E-32 3.77541E-32 0.00000E+00 0.00000E+00 0.00000E+00
  66.700 3.45784E-33 3.45784E-33 0.00000E+00 0.00000E+00 0.00000E+00
  66.800 3.03263E-34 3.03263E-34 0.00000E+00 0.00000E+00 0.00000E+00
  66.900 2.54778E-35 2.54778E-35 0.00000E+00 0.00000E+00 0.00000E+00
  67.000 2.05000E-36 2.05000E-36 0.00000E+00 0.00000E+00 0.00000E+00
  67.100 1.57981E-37 1.57981E-37 0.00000E+00 0.00000E+00 0.00000E+00
  67.200 1.16600E-38 1.16600E-38 0.00000E+00 0.00000E+00 0.00000E+00
  67.300 8.24056E-40 8.24056E-40 0.00000E+00 0.00000E+00 0.00000E+00
  67.400 5.57899E-41 5.57899E-41 0.00000E+00 0.00000E+00 0.00000E+00
  67.500 3.61815E-42 3.61815E-42 0.00000E+00 0.00000E+00 0.00000E+00
  67.600 2.24208E-43 2.24208E-43 0.00000E+00 0.00000E+00 0.00000E+00
  67.700 1.40130E-44 1.40130E-44 0.00000E+00 0.00000E+00 0.00000E+00
  67.800 1.40130E-45 1.40130E-45 0.00000E+00 0.00000E+00 0.00000E+00
  67.900 0.00000E+00 0.00000E+00 0.00000E+00 0.00000E+00 0.00000E+00
  68.000 0.00000E+00 0.00000E+00 0.00000E+00 0.00000E+00 0.00000E+00
  68.100 0.00000E+00 0.00000E+00 0.00000E+00 0.00000E+00 0.00000E+00
  68.200 0.00000E+00 0.00000E+00 0.00000E+00 0.00000E+00 0.00000E+00
  68.300 0.00000E+00 0.00000E+00 0.00000E+00 0.00000E+00 0.00000E+00
  68.400 0.00000E+00 0.00000E+00 0.00000E+00 0.00000E+00 0.00000E+00
  68.500 0.00000E+00 0.00000E+00 0.00000E+00 0.00000E+00 0.00000E+00
  68.600 0.00000E+00 0.00000E+00 0.00000E+00 0.00000E+00 0.00000E+00
  68.700 0.00000E+00 0.00000E+00 0.00000E+00 0.00000E+00 0.00000E+00
  68.800 0.00000E+00 0.00000E+00 0.00000E+00 0.00000E+00 0.00000E+00
  68.900 0.00000E+00 0.00000E+00 0.00000E+00 0.00000E+00 0.00000E+00
  69.000 0.00000E+00 0.00000E+00 0.00000E+00 0.00000E+00 0.00000E+00
  69.100 0.00000E+00 0.00000E+00 0.00000E+00 0.00000E+00 0.00000E+00
  69.200 0.00000E+00 0.00000E+00 0.00000E+00 0.00000E+00 0.00000E+00
  69.300 0.00000E+00 0.00000E+00 0.00000E+00 0.00000E+00 0.00000E+00
  69.400 0.00000E+00 0.00000E+00 0.00000E+00 0.00000E+00 0.00000E+00
  69.500 0.00000E+00 0.00000E+00 0.00000E+00 0.00000E+00 0.00000E+00
  69.600 0.00000E+00 0.00000E+00 0.00000E+00 0.00000E+00 0.00000E+00
  69.700 0.00000E+00 0.00000E+00 0.00000E+00 0.00000E+00 0.00000E+00
  69.800 0.00000E+00 0.00000E+00 0.00000E+00 0.00000E+00 0.00000E+00
  69.900 0.00000E+00 0.00000E+00 0.00000E+00 0.00000E+00 0.00000E+00
  70.000 0.00000E+00 0.00000E+00 0.00000E+00 0.00000E+00 0.00000E+00
