# n + 208Pb: Gamma-ray intensity - 206Pb: Level  6 --> Level  0 - gamma energy    1.704450
# E-initial  =   1.704450 E-final=   0.000000
# E-threshold= 1.58868E+01
# # energies =    67
#    E           xs
 1.00000E-11 0.00000E+00
 2.53000E-08 0.00000E+00
 2.00000E-07 0.00000E+00
 1.00000E-06 0.00000E+00
 1.00000E-03 0.00000E+00
 2.00000E-03 0.00000E+00
 5.00000E-03 0.00000E+00
 1.00000E-02 0.00000E+00
 2.00000E-02 0.00000E+00
 5.00000E-02 0.00000E+00
 1.00000E-01 0.00000E+00
 2.00000E-01 0.00000E+00
 3.00000E-01 0.00000E+00
 4.00000E-01 0.00000E+00
 5.00000E-01 0.00000E+00
 7.50000E-01 0.00000E+00
 1.00000E+00 0.00000E+00
 1.20000E+00 0.00000E+00
 1.40000E+00 0.00000E+00
 1.60000E+00 0.00000E+00
 1.80000E+00 0.00000E+00
 2.00000E+00 0.00000E+00
 2.20000E+00 0.00000E+00
 2.40000E+00 0.00000E+00
 2.60000E+00 0.00000E+00
 2.80000E+00 0.00000E+00
 3.00000E+00 0.00000E+00
 3.20000E+00 0.00000E+00
 3.40000E+00 0.00000E+00
 3.60000E+00 0.00000E+00
 3.80000E+00 0.00000E+00
 4.00000E+00 0.00000E+00
 4.20000E+00 0.00000E+00
 4.40000E+00 0.00000E+00
 4.60000E+00 0.00000E+00
 4.80000E+00 0.00000E+00
 5.00000E+00 0.00000E+00
 5.50000E+00 0.00000E+00
 6.00000E+00 0.00000E+00
 6.50000E+00 0.00000E+00
 7.00000E+00 0.00000E+00
 7.50000E+00 0.00000E+00
 8.00000E+00 0.00000E+00
 8.50000E+00 0.00000E+00
 9.00000E+00 0.00000E+00
 9.50000E+00 0.00000E+00
 1.00000E+01 0.00000E+00
 1.10000E+01 0.00000E+00
 1.20000E+01 0.00000E+00
 1.30000E+01 0.00000E+00
 1.40000E+01 0.00000E+00
 1.50000E+01 0.00000E+00
 1.60000E+01 7.22970E-04
 1.70000E+01 5.63952E-01
 1.80000E+01 3.86464E+00
 1.90000E+01 9.81830E+00
 2.00000E+01 1.62411E+01
 2.10000E+01 2.11369E+01
 2.20000E+01 2.43463E+01
 2.30000E+01 2.58485E+01
 2.40000E+01 2.76326E+01
 2.50000E+01 2.80105E+01
 2.60000E+01 2.74158E+01
 2.70000E+01 2.65643E+01
 2.80000E+01 2.46167E+01
 2.90000E+01 2.37414E+01
 3.00000E+01 2.16725E+01
