# n + 208Pb: Gamma-ray intensity - 206Pb: Level  7 --> Level  2 - gamma energy    0.617690
# E-initial  =   1.784090 E-final=   1.166400
# E-threshold= 1.59668E+01
# # energies =    67
#    E           xs
 1.00000E-11 0.00000E+00
 2.53000E-08 0.00000E+00
 2.00000E-07 0.00000E+00
 1.00000E-06 0.00000E+00
 1.00000E-03 0.00000E+00
 2.00000E-03 0.00000E+00
 5.00000E-03 0.00000E+00
 1.00000E-02 0.00000E+00
 2.00000E-02 0.00000E+00
 5.00000E-02 0.00000E+00
 1.00000E-01 0.00000E+00
 2.00000E-01 0.00000E+00
 3.00000E-01 0.00000E+00
 4.00000E-01 0.00000E+00
 5.00000E-01 0.00000E+00
 7.50000E-01 0.00000E+00
 1.00000E+00 0.00000E+00
 1.20000E+00 0.00000E+00
 1.40000E+00 0.00000E+00
 1.60000E+00 0.00000E+00
 1.80000E+00 0.00000E+00
 2.00000E+00 0.00000E+00
 2.20000E+00 0.00000E+00
 2.40000E+00 0.00000E+00
 2.60000E+00 0.00000E+00
 2.80000E+00 0.00000E+00
 3.00000E+00 0.00000E+00
 3.20000E+00 0.00000E+00
 3.40000E+00 0.00000E+00
 3.60000E+00 0.00000E+00
 3.80000E+00 0.00000E+00
 4.00000E+00 0.00000E+00
 4.20000E+00 0.00000E+00
 4.40000E+00 0.00000E+00
 4.60000E+00 0.00000E+00
 4.80000E+00 0.00000E+00
 5.00000E+00 0.00000E+00
 5.50000E+00 0.00000E+00
 6.00000E+00 0.00000E+00
 6.50000E+00 0.00000E+00
 7.00000E+00 0.00000E+00
 7.50000E+00 0.00000E+00
 8.00000E+00 0.00000E+00
 8.50000E+00 0.00000E+00
 9.00000E+00 0.00000E+00
 9.50000E+00 0.00000E+00
 1.00000E+01 0.00000E+00
 1.10000E+01 0.00000E+00
 1.20000E+01 0.00000E+00
 1.30000E+01 0.00000E+00
 1.40000E+01 0.00000E+00
 1.50000E+01 0.00000E+00
 1.60000E+01 1.32639E-05
 1.70000E+01 5.54213E-02
 1.80000E+01 4.20717E-01
 1.90000E+01 1.06091E+00
 2.00000E+01 1.71363E+00
 2.10000E+01 2.17049E+00
 2.20000E+01 2.44076E+00
 2.30000E+01 2.55398E+00
 2.40000E+01 2.67701E+00
 2.50000E+01 2.67131E+00
 2.60000E+01 2.56390E+00
 2.70000E+01 2.42153E+00
 2.80000E+01 2.19070E+00
 2.90000E+01 2.05261E+00
 3.00000E+01 1.84519E+00
