# n + 208Pb   : (n,d)             Total
# Q-value    =-5.77848E+00
# E-threshold= 5.80651E+00
# # energies =    46
#     E          xs       gamma xs  xs/res.prod.xs
 1.00000E+00 0.00000E+00 0.00000E+00 0.00000E+00
 1.20000E+00 0.00000E+00 0.00000E+00 0.00000E+00
 1.40000E+00 0.00000E+00 0.00000E+00 0.00000E+00
 1.60000E+00 0.00000E+00 0.00000E+00 0.00000E+00
 1.80000E+00 0.00000E+00 0.00000E+00 0.00000E+00
 2.00000E+00 0.00000E+00 0.00000E+00 0.00000E+00
 2.20000E+00 0.00000E+00 0.00000E+00 0.00000E+00
 2.40000E+00 0.00000E+00 0.00000E+00 0.00000E+00
 2.60000E+00 0.00000E+00 0.00000E+00 0.00000E+00
 2.80000E+00 0.00000E+00 0.00000E+00 0.00000E+00
 3.00000E+00 0.00000E+00 0.00000E+00 0.00000E+00
 3.20000E+00 0.00000E+00 0.00000E+00 0.00000E+00
 3.40000E+00 0.00000E+00 0.00000E+00 0.00000E+00
 3.60000E+00 0.00000E+00 0.00000E+00 0.00000E+00
 3.80000E+00 0.00000E+00 0.00000E+00 0.00000E+00
 4.00000E+00 0.00000E+00 0.00000E+00 0.00000E+00
 4.20000E+00 0.00000E+00 0.00000E+00 0.00000E+00
 4.40000E+00 0.00000E+00 0.00000E+00 0.00000E+00
 4.60000E+00 0.00000E+00 0.00000E+00 0.00000E+00
 4.80000E+00 0.00000E+00 0.00000E+00 0.00000E+00
 5.00000E+00 0.00000E+00 0.00000E+00 0.00000E+00
 5.50000E+00 0.00000E+00 0.00000E+00 0.00000E+00
 6.00000E+00 0.00000E+00 0.00000E+00 0.00000E+00
 6.50000E+00 0.00000E+00 0.00000E+00 0.00000E+00
 7.00000E+00 0.00000E+00 0.00000E+00 0.00000E+00
 7.50000E+00 0.00000E+00 0.00000E+00 0.00000E+00
 8.00000E+00 0.00000E+00 0.00000E+00 0.00000E+00
 8.50000E+00 0.00000E+00 0.00000E+00 0.00000E+00
 9.00000E+00 0.00000E+00 0.00000E+00 0.00000E+00
 9.50000E+00 0.00000E+00 0.00000E+00 0.00000E+00
 1.00000E+01 0.00000E+00 0.00000E+00 0.00000E+00
 1.10000E+01 1.04631E-06 0.00000E+00 0.00000E+00
 1.20000E+01 1.46094E-05 0.00000E+00 0.00000E+00
 1.30000E+01 1.62548E-04 0.00000E+00 0.00000E+00
 1.40000E+01 3.14402E-03 1.74994E-03 5.73338E-01
 1.50000E+01 2.27699E-02 1.41229E-02 6.00158E-01
 1.60000E+01 1.09820E-01 7.60633E-02 6.05609E-01
 1.70000E+01 3.66334E-01 2.91342E-01 6.02065E-01
 1.80000E+01 8.54828E-01 8.08928E-01 5.59431E-01
 1.90000E+01 1.59878E+00 1.79423E+00 5.07245E-01
 2.00000E+01 2.57091E+00 3.32171E+00 4.62984E-01
 2.20000E+01 4.94200E+00 7.88062E+00 3.70753E-01
 2.40000E+01 7.38144E+00 1.35886E+01 3.01535E-01
 2.60000E+01 9.37351E+00 1.89975E+01 2.50230E-01
 2.80000E+01 1.13363E+01 2.36698E+01 2.23732E-01
 3.00000E+01 1.18644E+01 2.54815E+01 1.94956E-01
