# n + 208Pb   : (n,np)            Total
# Q-value    =-8.00305E+00
# E-threshold= 8.04187E+00
# # energies =    46
#     E          xs       gamma xs  xs/res.prod.xs
 1.00000E+00 0.00000E+00 0.00000E+00 0.00000E+00
 1.20000E+00 0.00000E+00 0.00000E+00 0.00000E+00
 1.40000E+00 0.00000E+00 0.00000E+00 0.00000E+00
 1.60000E+00 0.00000E+00 0.00000E+00 0.00000E+00
 1.80000E+00 0.00000E+00 0.00000E+00 0.00000E+00
 2.00000E+00 0.00000E+00 0.00000E+00 0.00000E+00
 2.20000E+00 0.00000E+00 0.00000E+00 0.00000E+00
 2.40000E+00 0.00000E+00 0.00000E+00 0.00000E+00
 2.60000E+00 0.00000E+00 0.00000E+00 0.00000E+00
 2.80000E+00 0.00000E+00 0.00000E+00 0.00000E+00
 3.00000E+00 0.00000E+00 0.00000E+00 0.00000E+00
 3.20000E+00 0.00000E+00 0.00000E+00 0.00000E+00
 3.40000E+00 0.00000E+00 0.00000E+00 0.00000E+00
 3.60000E+00 0.00000E+00 0.00000E+00 0.00000E+00
 3.80000E+00 0.00000E+00 0.00000E+00 0.00000E+00
 4.00000E+00 0.00000E+00 0.00000E+00 0.00000E+00
 4.20000E+00 0.00000E+00 0.00000E+00 0.00000E+00
 4.40000E+00 0.00000E+00 0.00000E+00 0.00000E+00
 4.60000E+00 0.00000E+00 0.00000E+00 0.00000E+00
 4.80000E+00 0.00000E+00 0.00000E+00 0.00000E+00
 5.00000E+00 0.00000E+00 0.00000E+00 0.00000E+00
 5.50000E+00 0.00000E+00 0.00000E+00 0.00000E+00
 6.00000E+00 0.00000E+00 0.00000E+00 0.00000E+00
 6.50000E+00 0.00000E+00 0.00000E+00 0.00000E+00
 7.00000E+00 0.00000E+00 0.00000E+00 0.00000E+00
 7.50000E+00 0.00000E+00 0.00000E+00 0.00000E+00
 8.00000E+00 0.00000E+00 0.00000E+00 0.00000E+00
 8.50000E+00 0.00000E+00 0.00000E+00 0.00000E+00
 9.00000E+00 0.00000E+00 0.00000E+00 0.00000E+00
 9.50000E+00 0.00000E+00 0.00000E+00 0.00000E+00
 1.00000E+01 0.00000E+00 0.00000E+00 0.00000E+00
 1.10000E+01 0.00000E+00 0.00000E+00 0.00000E+00
 1.20000E+01 1.70430E-06 2.63319E-12 0.00000E+00
 1.30000E+01 1.28896E-04 1.31742E-07 0.00000E+00
 1.40000E+01 2.33969E-03 7.11604E-04 4.26661E-01
 1.50000E+01 1.51700E-02 5.64852E-03 3.99842E-01
 1.60000E+01 7.15179E-02 2.67431E-02 3.94391E-01
 1.70000E+01 2.42128E-01 9.76034E-02 3.97934E-01
 1.80000E+01 6.73202E-01 2.98691E-01 4.40568E-01
 1.90000E+01 1.55311E+00 7.86992E-01 4.92755E-01
 2.00000E+01 2.98200E+00 1.78375E+00 5.37016E-01
 2.20000E+01 8.38759E+00 7.48445E+00 6.29246E-01
 2.40000E+01 1.70981E+01 2.10254E+01 6.98464E-01
 2.60000E+01 2.80859E+01 4.42989E+01 7.49767E-01
 2.80000E+01 3.93324E+01 7.33791E+01 7.76261E-01
 3.00000E+01 4.89917E+01 1.01279E+02 8.05030E-01
