# n + 242Pu   : (n,n'f)           Fission
# Q-value    = 0.00000E+00
# E-threshold= 4.47256E-02
# # energies =    78
#    E         xs
 1.00000E-11 0.00000E+00
 2.53000E-08 0.00000E+00
 2.00000E-07 0.00000E+00
 1.00000E-06 0.00000E+00
 1.00000E-05 0.00000E+00
 1.00000E-04 0.00000E+00
 1.00000E-03 0.00000E+00
 2.00000E-03 0.00000E+00
 4.00000E-03 0.00000E+00
 7.00000E-03 0.00000E+00
 1.00000E-02 0.00000E+00
 2.00000E-02 0.00000E+00
 4.00000E-02 0.00000E+00
 7.00000E-02 0.00000E+00
 1.00000E-01 0.00000E+00
 2.00000E-01 0.00000E+00
 3.00000E-01 0.00000E+00
 4.00000E-01 0.00000E+00
 5.00000E-01 0.00000E+00
 6.00000E-01 0.00000E+00
 7.00000E-01 0.00000E+00
 8.00000E-01 0.00000E+00
 9.00000E-01 0.00000E+00
 1.00000E+00 0.00000E+00
 1.20000E+00 0.00000E+00
 1.40000E+00 0.00000E+00
 1.60000E+00 0.00000E+00
 1.80000E+00 0.00000E+00
 2.00000E+00 0.00000E+00
 2.20000E+00 0.00000E+00
 2.40000E+00 0.00000E+00
 2.60000E+00 6.17538E-07
 2.80000E+00 1.24801E-05
 3.00000E+00 5.58982E-05
 3.20000E+00 1.81740E-04
 3.40000E+00 5.13984E-04
 3.60000E+00 1.39332E-03
 3.80000E+00 3.68057E-03
 4.00000E+00 2.19847E-02
 4.20000E+00 2.45437E-02
 4.40000E+00 7.70469E-02
 4.60000E+00 5.23641E-01
 4.80000E+00 4.46949E+00
 5.00000E+00 1.05802E+01
 5.20000E+00 2.28246E+01
 5.40000E+00 3.19860E+01
 5.60000E+00 4.88004E+01
 5.80000E+00 7.06512E+01
 6.00000E+00 9.99346E+01
 6.20000E+00 1.66734E+02
 6.40000E+00 2.92875E+02
 6.60000E+00 4.34126E+02
 6.80000E+00 5.65034E+02
 7.00000E+00 7.01975E+02
 7.20000E+00 8.44477E+02
 7.40000E+00 9.92686E+02
 7.60000E+00 1.13173E+03
 7.80000E+00 1.24310E+03
 8.00000E+00 1.32721E+03
 8.50000E+00 1.45581E+03
 9.00000E+00 1.51966E+03
 9.50000E+00 1.55076E+03
 1.00000E+01 1.56517E+03
 1.05000E+01 1.56743E+03
 1.10000E+01 1.56051E+03
 1.15000E+01 1.54124E+03
 1.20000E+01 1.48186E+03
 1.25000E+01 1.39273E+03
 1.30000E+01 1.30543E+03
 1.35000E+01 1.22335E+03
 1.40000E+01 1.15144E+03
 1.45000E+01 1.08918E+03
 1.50000E+01 1.03167E+03
 1.60000E+01 9.06088E+02
 1.70000E+01 7.49184E+02
 1.80000E+01 5.98402E+02
 1.90000E+01 4.85246E+02
 2.00000E+01 4.17292E+02
